#
#
#
#
#
#
#
#   Quelldatei:viscoel003.gxx
#   Zieldatei:viscoel003.dat
#
#   Querschnitt:  169.717
#   Messlaenge:    15.000
# [N/mm**2]	[N]		[%-ext]		[%-trav]	[s]		[mm]
0.000000	0.000000	0.000000	0.000000	0.000000	267.645000
0.050300	8.540000	0.906700	0.906700	1.054302	267.987000
0.102800	17.440000	2.620000	2.620000	3.046512	268.612000
0.147300	25.000000	4.333300	4.333300	5.038721	269.217000
0.188200	31.940000	6.146700	6.146700	7.147326	269.826000
0.224300	38.060000	7.833300	7.833300	9.108488	270.403000
0.258100	43.800000	9.640000	9.640000	11.209302	271.002000
0.286900	48.700000	11.326700	11.326700	13.170581	271.555000
0.317000	53.800000	13.040000	13.040000	15.162791	272.148000
0.343600	58.320000	14.786700	14.786700	17.193837	272.727000
0.368000	62.460000	16.533300	16.533300	19.224767	273.297000
0.391500	66.440000	18.253300	18.253300	21.224767	273.870000
0.413600	70.200000	20.060000	20.060000	23.325581	274.453000
0.433400	73.560000	21.713300	21.713300	25.248023	275.005000
0.452500	76.800000	23.460000	23.460000	27.279070	275.573000
0.469400	79.660000	25.240000	25.240000	29.348837	276.118000
0.485400	82.380000	26.986700	26.986700	31.379884	276.654000
0.500200	84.900000	28.700000	28.700000	33.372093	277.187000
0.515400	87.480000	30.420000	30.420000	35.372093	277.743000
0.529000	89.780000	32.200000	32.200000	37.441860	278.281000
0.541100	91.840000	33.913300	33.913300	39.434070	278.803000
0.554200	94.060000	35.660000	35.660000	41.465116	279.349000
0.565800	96.020000	37.440000	37.440000	43.534884	279.881000
0.575900	97.740000	39.120000	39.120000	45.488372	280.382000
0.586000	99.460000	40.840000	40.840000	47.488372	280.901000
0.596400	101.220000	42.653300	42.653300	49.596860	281.436000
0.605700	102.800000	44.300000	44.300000	51.511628	281.946000
0.614900	104.360000	46.080000	46.080000	53.581395	282.467000
0.622200	105.600000	47.860000	47.860000	55.651163	282.957000
0.631200	107.120000	49.573300	49.573300	57.643372	283.469000
0.638800	108.420000	51.293300	51.293300	59.643372	283.969000
0.646100	109.660000	53.073300	53.073300	61.713140	284.458000
0.654100	111.020000	54.786700	54.786700	63.705465	284.970000
0.661100	112.200000	56.500000	56.500000	65.697674	285.460000
0.669500	113.620000	58.246700	58.246700	67.728721	285.993000
0.676200	114.760000	59.933300	59.933300	69.689884	286.493000
0.683300	115.960000	61.713300	61.713300	71.759651	287.007000
0.690100	117.120000	63.460000	63.460000	73.790698	287.510000
0.695300	118.000000	65.206700	65.206700	75.821744	287.979000
0.701900	119.120000	66.920000	66.920000	77.813953	288.474000
0.708600	120.260000	68.633300	68.633300	79.806163	288.976000
0.715000	121.340000	70.413300	70.413300	81.875930	289.467000
0.721900	122.520000	72.100000	72.100000	83.837209	289.982000
0.728400	123.620000	73.880000	73.880000	85.906977	290.485000
0.735200	124.780000	75.593300	75.593300	87.899186	290.991000
0.740900	125.740000	77.340000	77.340000	89.930233	291.479000
0.747600	126.880000	79.020000	79.020000	91.883721	291.977000
0.754800	128.100000	80.773300	80.773300	93.922442	292.493000
0.761500	129.240000	82.520000	82.520000	95.953488	293.001000
0.768300	130.400000	84.233300	84.233300	97.945698	293.509000
0.776000	131.700000	85.946700	85.946700	99.938023	294.038000
0.784100	133.080000	87.693300	87.693300	101.968953	294.574000
0.792700	134.540000	89.440000	89.440000	104.000000	295.128000
0.799400	135.680000	91.193300	91.193300	106.038721	295.634000
0.807100	136.980000	92.906700	92.906700	108.031047	296.143000
0.815000	138.320000	94.586700	94.586700	109.984535	296.669000
0.824800	139.980000	96.333300	96.333300	112.015465	297.239000
0.834800	141.680000	98.080000	98.080000	114.046512	297.809000
0.844000	143.240000	99.833300	99.833300	116.085233	298.361000
0.814800	138.280000	99.053300	99.053300	116.992209	297.988000
0.786800	133.540000	97.240000	97.240000	119.100698	297.365000
0.764200	129.700000	95.526700	95.526700	121.092907	296.756000
0.744400	126.340000	93.780000	93.780000	123.123953	296.165000
0.727200	123.420000	92.033300	92.033300	125.155000	295.599000
0.710900	120.660000	90.220000	90.220000	127.263488	295.028000
0.698100	118.480000	88.506700	88.506700	129.255698	294.536000
0.684100	116.100000	86.786700	86.786700	131.255698	294.011000
0.670800	113.840000	85.073300	85.073300	133.248023	293.475000
0.655900	111.320000	83.453300	83.453300	135.131744	292.882000
0.643000	109.120000	81.580000	81.580000	137.310000	292.312000
0.631500	107.180000	79.833300	79.833300	139.341047	291.790000
0.620000	105.220000	78.053300	78.053300	141.410814	291.273000
0.609400	103.420000	76.340000	76.340000	143.403023	290.771000
0.598900	101.640000	74.586700	74.586700	145.441744	290.274000
0.588200	99.820000	72.873300	72.873300	147.434070	289.775000
0.577300	97.980000	71.126700	71.126700	149.465000	289.263000
0.567100	96.240000	69.380000	69.380000	151.496047	288.765000
0.556800	94.500000	67.700000	67.700000	153.449535	288.284000
0.546100	92.680000	65.946700	65.946700	155.488256	287.777000
0.536300	91.020000	64.200000	64.200000	157.519302	287.291000
0.525800	89.240000	62.486700	62.486700	159.511512	286.803000
0.515300	87.460000	60.773300	60.773300	161.503837	286.306000
0.504100	85.560000	58.993300	58.993300	163.573605	285.790000
0.492700	83.620000	57.306700	57.306700	165.534767	285.279000
0.482200	81.840000	55.500000	55.500000	167.635581	284.778000
0.470800	79.900000	53.813300	53.813300	169.596860	284.277000
0.459700	78.020000	52.066700	52.066700	171.627791	283.785000
0.448400	76.100000	50.320000	50.320000	173.658837	283.291000
0.436300	74.040000	48.606700	48.606700	175.651047	282.790000
0.425400	72.200000	46.826700	46.826700	177.720814	282.310000
0.412500	70.000000	45.140000	45.140000	179.682093	281.798000
0.398700	67.660000	43.393300	43.393300	181.713140	281.272000
0.386400	65.580000	41.680000	41.680000	183.705349	280.772000
0.372300	63.180000	39.900000	39.900000	185.775116	280.251000
0.358800	60.900000	38.186700	38.186700	187.767326	279.755000
0.344900	58.540000	36.500000	36.500000	189.728605	279.252000
0.330200	56.040000	34.753300	34.753300	191.759651	278.741000
0.313500	53.200000	33.006700	33.006700	193.790581	278.201000
0.298000	50.580000	31.293300	31.293300	195.782907	277.683000
0.282000	47.860000	29.513300	29.513300	197.852674	277.166000
0.264300	44.860000	27.826700	27.826700	199.813837	276.637000
0.246600	41.860000	26.046700	26.046700	201.883605	276.106000
0.228700	38.820000	24.300000	24.300000	203.914651	275.589000
0.208700	35.420000	22.586700	22.586700	205.906860	275.047000
0.189300	32.120000	20.873300	20.873300	207.899186	274.517000
0.167900	28.500000	19.126700	19.126700	209.930116	273.967000
0.143900	24.420000	17.440000	17.440000	211.891395	273.395000
0.120900	20.520000	15.660000	15.660000	213.961163	272.839000
0.098400	16.700000	13.980000	13.980000	215.914651	272.302000
0.072600	12.320000	12.233300	12.233300	217.945698	271.736000
0.043600	7.400000	10.420000	10.420000	220.054186	271.135000
0.020600	3.500000	8.766700	8.766700	221.976628	270.620000
-0.010600	-1.800000	7.086700	7.086700	223.930116	270.023000
-0.038100	-6.460000	5.340000	5.340000	225.961163	269.441000
-0.072800	-12.360000	3.593300	3.593300	227.992209	268.789000
-0.108400	-18.400000	1.880000	1.880000	229.984419	268.187000
-0.146000	-24.780000	0.126700	0.126700	232.023140	267.600000
-0.185200	-31.440000	-1.680000	-1.680000	234.123953	267.035000
-0.228500	-38.780000	-3.366700	-3.366700	236.085233	266.469000
-0.271700	-46.120000	-5.113300	-5.113300	238.116163	265.912000
-0.316900	-53.780000	-6.860000	-6.860000	240.147209	265.365000
-0.365000	-61.940000	-8.606700	-8.606700	242.178256	264.824000
-0.415200	-70.460000	-10.320000	-10.320000	244.170465	264.289000
-0.461700	-78.360000	-12.133300	-12.133300	246.278953	263.795000
-0.515000	-87.400000	-13.820000	-13.820000	248.240233	263.275000
-0.569300	-96.620000	-15.600000	-15.600000	250.310000	262.750000
-0.623600	-105.840000	-17.346700	-17.346700	252.341047	262.245000
-0.681800	-115.720000	-19.060000	-19.060000	254.333256	261.734000
-0.735500	-124.820000	-20.773300	-20.773300	256.325465	261.249000
-0.801200	-135.980000	-22.493300	-22.493300	258.325465	260.721000
-0.865900	-146.960000	-24.240000	-24.240000	260.356512	260.195000
-0.861600	-146.220000	-24.920000	-24.920000	261.147209	260.038000
-0.727600	-123.480000	-22.846700	-22.846700	263.558023	260.657000
-0.636700	-108.060000	-21.166700	-21.166700	265.511512	261.175000
-0.556900	-94.520000	-19.386700	-19.386700	267.581279	261.692000
-0.487600	-82.760000	-17.666700	-17.666700	269.581279	262.183000
-0.423200	-71.820000	-15.920000	-15.920000	271.612326	262.677000
-0.363900	-61.760000	-14.173300	-14.173300	273.643372	263.171000
-0.303300	-51.480000	-12.520000	-12.520000	275.565814	263.701000
-0.251600	-42.700000	-10.713300	-10.713300	277.666628	264.209000
-0.200800	-34.080000	-9.026700	-9.026700	279.627791	264.730000
-0.150500	-25.540000	-7.280000	-7.280000	281.658837	265.292000
-0.104200	-17.680000	-5.566700	-5.566700	283.651047	265.850000
-0.060700	-10.300000	-3.853300	-3.853300	285.643372	266.413000
-0.018700	-3.180000	-2.166700	-2.166700	287.604535	267.004000
0.021300	3.620000	-0.420000	-0.420000	289.635581	267.612000
0.060600	10.280000	1.360000	1.360000	291.705349	268.218000
0.098900	16.780000	3.073300	3.073300	293.697558	268.830000
0.133900	22.720000	4.760000	4.760000	295.658837	269.433000
0.166200	28.200000	6.566700	6.566700	297.759651	270.032000
0.197200	33.460000	8.253300	8.253300	299.720814	270.618000
0.225300	38.240000	10.033300	10.033300	301.790581	271.204000
0.251500	42.680000	11.746700	11.746700	303.782907	271.771000
0.277800	47.140000	13.493300	13.493300	305.813837	272.361000
0.300700	51.040000	15.240000	15.240000	307.844884	272.926000
0.322300	54.700000	16.953300	16.953300	309.837093	273.482000
0.344500	58.460000	18.706700	18.706700	311.875930	274.060000
0.364500	61.860000	20.453300	20.453300	313.906860	274.626000
0.383500	65.080000	22.200000	22.200000	315.937907	275.187000
0.401000	68.060000	23.946700	23.946700	317.968953	275.737000
0.415600	70.540000	25.660000	25.660000	319.961163	276.247000
0.431100	73.160000	27.406700	27.406700	321.992209	276.772000
0.446600	75.800000	29.126700	29.126700	323.992209	277.317000
0.461000	78.240000	30.873300	30.873300	326.023140	277.855000
0.474100	80.460000	32.653300	32.653300	328.092907	278.376000
0.486300	82.540000	34.366700	34.366700	330.085233	278.885000
0.499200	84.720000	36.080000	36.080000	332.077442	279.417000
0.511100	86.740000	37.860000	37.860000	334.147209	279.943000
0.522600	88.700000	39.573300	39.573300	336.139419	280.460000
0.533600	90.560000	41.260000	41.260000	338.100698	280.980000
0.543700	92.280000	43.073300	43.073300	340.209186	281.502000
0.555000	94.200000	44.753300	44.753300	342.162674	282.031000
0.564400	95.780000	46.533300	46.533300	344.232442	282.549000
0.572800	97.220000	48.246700	48.246700	346.224767	283.036000
0.581900	98.760000	49.966700	49.966700	348.224767	283.537000
0.590500	100.220000	51.746700	51.746700	350.294535	284.040000
0.599100	101.680000	53.426700	53.426700	352.248023	284.536000
0.608200	103.220000	55.240000	55.240000	354.356512	285.064000
0.616600	104.640000	56.886700	56.886700	356.271279	285.564000
0.624600	106.000000	58.666700	58.666700	358.341047	286.075000
0.634100	107.620000	60.353300	60.353300	360.302209	286.619000
0.639900	108.600000	62.133300	62.133300	362.371977	287.087000
0.647900	109.960000	63.913300	63.913300	364.441744	287.593000
0.654500	111.080000	65.593300	65.593300	366.395233	288.062000
0.662200	112.380000	67.340000	67.340000	368.426279	288.570000
0.669900	113.700000	69.086700	69.086700	370.457326	289.074000
0.676900	114.880000	70.806700	70.806700	372.457326	289.563000
0.685000	116.260000	72.553300	72.553300	374.488256	290.085000
0.692200	117.480000	74.300000	74.300000	376.519302	290.588000
0.700000	118.800000	76.013300	76.013300	378.511512	291.092000
0.707100	120.000000	77.760000	77.760000	380.542558	291.588000
0.715200	121.380000	79.446700	79.446700	382.503837	292.102000
0.722700	122.660000	81.193300	81.193300	384.534767	292.610000
0.731200	124.100000	82.940000	82.940000	386.565814	293.141000
0.739200	125.460000	84.653300	84.653300	388.558023	293.652000
0.747700	126.900000	86.400000	86.400000	390.589070	294.181000
0.756800	128.440000	88.086700	88.086700	392.550349	294.715000
0.765900	129.980000	89.866700	89.866700	394.620116	295.263000
0.774000	131.360000	91.613300	91.613300	396.651047	295.775000
0.783000	132.880000	93.326700	93.326700	398.643372	296.298000
0.792900	134.560000	95.006700	95.006700	400.596860	296.845000
0.803500	136.360000	96.726700	96.726700	402.596860	297.414000
0.813900	138.140000	98.473300	98.473300	404.627791	297.970000
0.822200	139.540000	100.060000	100.060000	406.472791	298.478000
0.787900	133.720000	98.633300	98.633300	408.131744	297.886000
0.762700	129.440000	96.853300	96.853300	410.201512	297.276000
0.741700	125.880000	95.140000	95.140000	412.193721	296.679000
0.723600	122.800000	93.326700	93.326700	414.302209	296.103000
0.707500	120.080000	91.613300	91.613300	416.294535	295.560000
0.692400	117.520000	89.866700	89.866700	418.325465	295.014000
0.678800	115.200000	88.146700	88.146700	420.325465	294.492000
0.664500	112.780000	86.400000	86.400000	422.356512	293.941000
0.651300	110.540000	84.686700	84.686700	424.348721	293.403000
0.638200	108.320000	82.940000	82.940000	426.379767	292.850000
0.626000	106.240000	81.226700	81.226700	428.371977	292.305000
0.614200	104.240000	79.446700	79.446700	430.441744	291.776000
0.603000	102.340000	77.693300	77.693300	432.480581	291.261000
0.592400	100.540000	75.946700	75.946700	434.511512	290.759000
0.581300	98.660000	74.233300	74.233300	436.503837	290.250000
0.570200	96.780000	72.520000	72.520000	438.496047	289.732000
0.559400	94.940000	70.740000	70.740000	440.565814	289.215000
0.549500	93.260000	68.993300	68.993300	442.596860	288.726000
0.539300	91.520000	67.273300	67.273300	444.596860	288.240000
0.528200	89.640000	65.593300	65.593300	446.550349	287.731000
0.518200	87.940000	63.846700	63.846700	448.581279	287.242000
0.507900	86.200000	62.066700	62.066700	450.651047	286.749000
0.498100	84.540000	60.413300	60.413300	452.573605	286.272000
0.486100	82.500000	58.606700	58.606700	454.674302	285.733000
0.474800	80.580000	56.886700	56.886700	456.674302	285.224000
0.464300	78.800000	55.106700	55.106700	458.744070	284.724000
0.452000	76.720000	53.393300	53.393300	460.736395	284.207000
0.441400	74.920000	51.680000	51.680000	462.728605	283.723000
0.430000	72.980000	49.933300	49.933300	464.759651	283.228000
0.417900	70.920000	48.213300	48.213300	466.759651	282.728000
0.407100	69.100000	46.500000	46.500000	468.751860	282.254000
0.394200	66.900000	44.786700	44.786700	470.744070	281.741000
0.380400	64.560000	43.006700	43.006700	472.813837	281.208000
0.367700	62.400000	41.293300	41.293300	474.806163	280.700000
0.353800	60.040000	39.546700	39.546700	476.837093	280.178000
0.340200	57.740000	37.826700	37.826700	478.837093	279.679000
0.325600	55.260000	36.080000	36.080000	480.868140	279.162000
0.310800	52.740000	34.366700	34.366700	482.860349	278.647000
0.294400	49.960000	32.653300	32.653300	484.852674	278.115000
0.278900	47.340000	30.873300	30.873300	486.922442	277.594000
0.263000	44.640000	29.153300	29.153300	488.922442	277.080000
0.244900	41.560000	27.440000	27.440000	490.914651	276.541000
0.227300	38.580000	25.660000	25.660000	492.984419	276.012000
0.210000	35.640000	23.980000	23.980000	494.937907	275.504000
0.189400	32.140000	22.200000	22.200000	497.007674	274.952000
0.169500	28.760000	20.546700	20.546700	498.930116	274.422000
0.148800	25.260000	18.766700	18.766700	500.999884	273.882000
0.124900	21.200000	17.020000	17.020000	503.030930	273.307000
0.101900	17.300000	15.273300	15.273300	505.061977	272.753000
0.079100	13.420000	13.593300	13.593300	507.015465	272.216000
0.052900	8.980000	11.873300	11.873300	509.015465	271.639000
0.026200	4.440000	10.066700	10.066700	511.116163	271.057000
0.001800	0.300000	8.380000	8.380000	513.077442	270.526000
-0.029300	-4.980000	6.700000	6.700000	515.030930	269.903000
-0.058200	-9.880000	4.986700	4.986700	517.023140	269.306000
-0.092500	-15.700000	3.206700	3.206700	519.092907	268.683000
-0.128800	-21.860000	1.453300	1.453300	521.131744	268.084000
-0.165000	-28.000000	-0.226700	-0.226700	523.085233	267.520000
-0.204000	-34.620000	-2.040000	-2.040000	525.193721	266.956000
-0.246500	-41.840000	-3.753300	-3.753300	527.185930	266.389000
-0.289300	-49.100000	-5.500000	-5.500000	529.216977	265.835000
-0.334700	-56.800000	-7.246700	-7.246700	531.248023	265.288000
-0.381700	-64.780000	-8.993300	-8.993300	533.278953	264.749000
-0.431700	-73.260000	-10.746700	-10.746700	535.317791	264.216000
-0.477500	-81.040000	-12.520000	-12.520000	537.379767	263.725000
-0.532100	-90.300000	-14.206700	-14.206700	539.341047	263.193000
-0.585100	-99.300000	-15.953300	-15.953300	541.371977	262.674000
-0.640100	-108.640000	-17.733300	-17.733300	543.441744	262.162000
-0.697000	-118.300000	-19.446700	-19.446700	545.434070	261.655000
-0.753100	-127.820000	-21.166700	-21.166700	547.434070	261.162000
-0.817500	-138.740000	-22.880000	-22.880000	549.426279	260.635000
-0.882100	-149.700000	-24.593300	-24.593300	551.418488	260.113000
-0.820100	-139.180000	-24.400000	-24.400000	551.643256	260.246000
-0.710500	-120.580000	-22.493300	-22.493300	553.860349	260.802000
-0.619700	-105.180000	-20.773300	-20.773300	555.860349	261.336000
-0.545000	-92.500000	-18.993300	-18.993300	557.930116	261.840000
-0.477500	-81.040000	-17.246700	-17.246700	559.961047	262.334000
-0.415000	-70.440000	-15.533300	-15.533300	561.953372	262.826000
-0.355700	-60.360000	-13.820000	-13.820000	563.945581	263.329000
-0.296300	-50.280000	-12.100000	-12.100000	565.945581	263.868000
-0.247500	-42.000000	-10.353300	-10.353300	567.976628	264.362000
-0.196800	-33.400000	-8.640000	-8.640000	569.968837	264.901000
-0.148700	-25.240000	-6.926700	-6.926700	571.961047	265.453000
-0.103100	-17.500000	-5.180000	-5.180000	573.992093	266.010000
-0.060600	-10.280000	-3.460000	-3.460000	575.992093	266.577000
-0.020300	-3.440000	-1.780000	-1.780000	577.945581	267.159000
0.019800	3.360000	-0.066700	-0.066700	579.937791	267.773000
0.058600	9.940000	1.713300	1.713300	582.007558	268.384000
0.095600	16.220000	3.460000	3.460000	584.038605	268.996000
0.130600	22.160000	5.180000	5.180000	586.038605	269.607000
0.160700	27.280000	6.926700	6.926700	588.069651	270.187000
0.191500	32.500000	8.673300	8.673300	590.100581	270.782000
0.218600	37.100000	10.453300	10.453300	592.170349	271.362000
