#
#
#
#
#
#
#
#   Quelldatei:groundel100-25.gxx  
#    Zieldatei:groundel100-25.dat  
#
#  Querschnitt:   170.410
#   Messlaenge:    15.000
#     [N/mm**2]            [N]        [%-ext]       [%-trav]            [s]           [mm]
#
         0.0            0.0            0.0            0.0            0.0          0.0
         0.0069         1.1800         0.1600         0.1600         0.1100       398.2320
         0.0067         1.1400         0.1600         0.1600         0.2300       398.2380
         0.0201         3.4200         0.4867         0.4867         0.3500       398.3550
         0.0345         5.8800         0.8067         0.8067         0.4700       398.4700
         0.0523         8.9200         1.3267         1.3267         0.5900       398.6410
         0.0757        12.9000         1.9733         1.9733         0.7100       398.8480
         0.0974        16.6000         2.5867         2.5867         0.8300       399.0590
         0.1174        20.0000         3.2067         3.2067         0.9500       399.2650
         0.1366        23.2800         3.7867         3.7867         1.0700       399.4730
         0.1549        26.4000         4.3667         4.3667         1.1900       399.6770
         0.1723        29.3600         4.9533         4.9533         1.3100       399.8810
         0.1894        32.2800         5.5667         5.5667         1.4300       400.0850
         0.2061        35.1200         6.2133         6.2133         1.5500       400.2920
         0.2223        37.8800         6.8267         6.8267         1.6700       400.5010
         0.2378        40.5200         7.3800         7.3800         1.7900       400.7040
         0.2521        42.9600         7.9600         7.9600         1.9100       400.9040
         0.2658        45.3000         8.5733         8.5733         2.0300       401.1050
         0.2798        47.6800         9.1600         9.1600         2.1500       401.3070
         0.2938        50.0600         9.8067         9.8067         2.2700       401.5120
         0.3068        52.2800        10.3867        10.3867         2.3900       401.7100
         0.3191        54.3800        11.0333        11.0333         2.5100       401.9060
         0.3314        56.4800        11.6200        11.6200         2.6300       402.1030
         0.3434        58.5200        12.2000        12.2000         2.7500       402.2990
         0.3547        60.4400        12.7800        12.7800         2.8700       402.4940
         0.3657        62.3200        13.4000        13.4000         2.9900       402.6870
         0.3766        64.1800        13.9800        13.9800         3.1100       402.8800
         0.3871        65.9600        14.5933        14.5933         3.2300       403.0720
         0.3977        67.7800        15.1800        15.1800         3.3500       403.2680
         0.4081        69.5400        15.8533        15.8533         3.4700       403.4640
         0.4178        71.2000        16.4400        16.4400         3.5900       403.6550
         0.4272        72.8000        17.0200        17.0200         3.7100       403.8430
         0.4365        74.3800        17.5733        17.5733         3.8300       404.0310
         0.4460        76.0000        18.1533        18.1533         3.9500       404.2230
         0.4549        77.5200        18.7333        18.7333         4.0700       404.4150
         0.4638        79.0400        19.3533        19.3533         4.1900       404.6090
         0.4730        80.6000        20.0000        20.0000         4.3100       404.8050
         0.4817        82.0800        20.6133        20.6133         4.4300       405.0000
         0.4893        83.3800        21.2267        21.2267         4.5500       405.1840
         0.4968        84.6600        21.8133        21.8133         4.6700       405.3690
         0.5043        85.9400        22.4267        22.4267         4.7900       405.5530
         0.5115        87.1600        23.0400        23.0400         4.9100       405.7370
         0.5185        88.3600        23.5933        23.5933         5.0300       405.9200
         0.5257        89.5800        24.2400        24.2400         5.1500       406.1040
    #	 
         0.5327        90.7800        25.0467        24.8867         5.2700       406.2880
    # 
         0.5223        89.0000        25.0467        25.4333         5.7800       406.4190
    # 
    #    0.5099        86.9000        25.4667        25.4667         6.2900       406.3830
    #    0.4954        84.4200        25.2733        25.2733         6.8000       406.2930
    #    0.4861        82.8400        25.1133        25.1133         7.3100       406.2390
    #    0.4803        81.8400        25.0800        25.0800         7.8200       406.2190
    #    0.4757        81.0600        25.0800        25.0800         8.3300       406.2100
         0.4717        80.3800        25.0467        25.0467         8.8400       406.2050
         0.4685        79.8400        25.0467        25.0467         9.3500       406.2040
         0.4655        79.3200        25.0467        25.0467         9.8600       406.2040
         0.4628        78.8600        25.0467        25.0467        10.3700       406.2040
         0.4602        78.4200        25.0467        25.0467        10.8800       406.2040
         0.4578        78.0200        25.0467        25.0467        11.3900       406.2040
         0.4556        77.6400        25.0467        25.0467        11.9000       406.2040
         0.4535        77.2800        25.0467        25.0467        12.4100       406.2040
         0.4517        76.9800        25.0467        25.0467        12.9200       406.2040
         0.4497        76.6400        25.0467        25.0467        13.4300       406.2040
         0.4481        76.3600        25.0467        25.0467        13.9400       406.2040
         0.4465        76.0800        25.0467        25.0467        14.4500       406.2040
         0.4449        75.8200        25.0467        25.0467        14.9600       406.2040
         0.4435        75.5800        25.0467        25.0467        15.4700       406.2040
         0.4421        75.3400        25.0467        25.0467        15.9800       406.2030
         0.4407        75.1000        25.0467        25.0467        16.4900       406.2030
         0.4394        74.8800        25.0467        25.0467        17.0000       406.2030
         0.4382        74.6800        25.0467        25.0467        17.5100       406.2030
         0.4371        74.4800        25.0467        25.0467        18.0200       406.2030
         0.4359        74.2800        25.0467        25.0467        18.5300       406.2030
         0.4347        74.0800        25.0467        25.0467        19.0400       406.2030
         0.4338        73.9200        25.0467        25.0467        19.5500       406.2030
         0.4327        73.7400        25.0467        25.0467        20.0600       406.2030
         0.4318        73.5800        25.0467        25.0467        20.5700       406.2030
         0.4308        73.4200        25.0467        25.0467        21.0800       406.2030
         0.4298        73.2400        25.0467        25.0467        21.5900       406.2030
         0.4290        73.1000        25.0467        25.0467        22.1000       406.2030
         0.4283        72.9800        25.0467        25.0467        22.6100       406.2030
         0.4272        72.8000        25.0467        25.0467        23.1200       406.2030
         0.4265        72.6800        25.0467        25.0467        23.6300       406.2030
         0.4257        72.5400        25.0467        25.0467        24.1400       406.2030
         0.4249        72.4000        25.0467        25.0467        24.6500       406.2030
         0.4242        72.2800        25.0467        25.0467        25.1600       406.2030
         0.4234        72.1600        25.0467        25.0467        25.6700       406.2030
         0.4226        72.0200        25.0467        25.0467        26.1800       406.2030
         0.4220        71.9200        25.0467        25.0467        26.6900       406.2030
         0.4213        71.8000        25.0467        25.0467        27.2000       406.2030
         0.4206        71.6800        25.0467        25.0467        27.7100       406.2030
         0.4200        71.5800        25.0467        25.0467        28.2200       406.2030
         0.4195        71.4800        25.0467        25.0467        28.7300       406.2030
         0.4188        71.3600        25.0467        25.0467        29.2400       406.2030
         0.4181        71.2400        25.0467        25.0467        29.7500       406.2030
         0.4175        71.1400        25.0467        25.0467        30.2600       406.2030
         0.4170        71.0600        25.0467        25.0467        30.7700       406.2030
         0.4164        70.9600        25.0467        25.0467        31.2800       406.2030
         0.4158        70.8600        25.0467        25.0467        31.7900       406.2030
         0.4154        70.7800        25.0467        25.0467        32.3000       406.2030
         0.4146        70.6600        25.0467        25.0467        32.8100       406.2030
         0.4142        70.5800        25.0467        25.0467        33.3200       406.2030
         0.4137        70.5000        25.0467        25.0467        33.8300       406.2030
         0.4132        70.4200        25.0467        25.0467        34.3400       406.2030
         0.4128        70.3400        25.0467        25.0467        34.8500       406.2030
         0.3823        65.1400        25.0467        25.0467        94.8500       406.2030
         0.3692        62.9200        25.0467        25.0467       154.8800       406.2030
         0.3610        61.5200        25.0467        25.0467       214.9100       406.2030
         0.3551        60.5200        25.0467        25.0467       274.9400       406.2030
         0.3506        59.7400        25.0467        25.0467       334.9700       406.2030
         0.3469        59.1200        25.0467        25.0467       395.0000       406.2030
         0.3439        58.6000        25.0467        25.0467       455.0300       406.2030
         0.3413        58.1600        25.0467        25.0467       515.0600       406.2030
         0.3391        57.7800        25.0467        25.0467       575.0900       406.2030
         0.3371        57.4400        25.0467        25.0467       635.0900       406.2030
         0.3353        57.1400        25.0467        25.0467       695.1200       406.2030
         0.3337        56.8600        25.0467        25.0467       755.1500       406.2030
         0.3323        56.6200        25.0467        25.0467       815.1800       406.2030
         0.3310        56.4000        25.0467        25.0467       875.2100       406.2030
         0.3298        56.2000        25.0467        25.0467       935.2400       406.2030
         0.3287        56.0200        25.0467        25.0467       995.2700       406.2030
         0.3276        55.8200        25.0467        25.0467      1055.2700       406.2030
         0.3266        55.6600        25.0467        25.0467      1115.3000       406.2030
         0.3257        55.5000        25.0467        25.0467      1175.3300       406.2030
         0.3264        55.6200        25.0467        25.0467      1235.3600       406.2590
         0.3255        55.4600        25.0467        25.0467      1295.3900       406.2590
         0.3246        55.3200        25.0467        25.0467      1355.4200       406.2590
         0.3239        55.2000        25.0467        25.0467      1415.4500       406.2590
         0.3232        55.0800        25.0467        25.0467      1475.4800       406.2590
         0.3225        54.9600        25.0467        25.0467      1535.5100       406.2590
         0.3219        54.8600        25.0467        25.0467      1595.5400       406.2590
         0.3212        54.7400        25.0467        25.0467      1655.5699       406.2590
         0.3206        54.6400        25.0467        25.0467      1715.6000       406.2590
         0.3201        54.5400        25.0467        25.0467      1775.6300       406.2590
         0.3196        54.4600        25.0467        25.0467      1835.6600       406.2590
         0.3190        54.3600        25.0467        25.0467      1895.6899       406.2590
         0.3186        54.3000        25.0467        25.0467      1955.7200       406.2590
         0.3181        54.2000        25.0467        25.0467      2015.7500       406.2590
         0.3176        54.1200        25.0467        25.0467      2075.7800       406.2590
         0.3171        54.0400        25.0467        25.0467      2135.8101       406.2590
         0.3168        53.9800        25.0467        25.0467      2195.8401       406.2590
         0.3164        53.9200        25.0467        25.0467      2255.8701       406.2590
         0.3159        53.8400        25.0467        25.0467      2315.8999       406.2590
         0.3156        53.7800        25.0467        25.0467      2375.9299       406.2590
         0.3150        53.6800        25.0467        25.0467      2435.9600       406.2590
         0.3148        53.6400        25.0467        25.0467      2495.9900       406.2590
         0.3144        53.5800        25.0467        25.0467      2556.0200       406.2590
         0.3141        53.5200        25.0467        25.0467      2616.0500       406.2590
         0.3136        53.4400        25.0467        25.0467      2676.0801       406.2590
         0.3132        53.3800        25.0467        25.0467      2736.1101       406.2590
         0.3131        53.3600        25.0467        25.0467      2796.1399       406.2590
         0.3128        53.3000        25.0467        25.0467      2856.1699       406.2590
         0.3123        53.2200        25.0467        25.0467      2916.2000       406.2590
         0.3122        53.2000        25.0467        25.0467      2976.2300       406.2590
         0.3118        53.1400        25.0467        25.0467      3036.2600       406.2590
         0.3125        53.2600        25.0467        25.0467      3096.2900       406.2770
         0.3122        53.2000        25.0467        25.0467      3156.3201       406.2770
         0.3118        53.1400        25.0467        25.0467      3216.3501       406.2770
         0.3116        53.1000        25.0467        25.0467      3276.3799       406.2770
         0.3114        53.0600        25.0467        25.0467      3336.4099       406.2770
         0.3110        53.0000        25.0467        25.0467      3396.4399       406.2770
         0.3108        52.9600        25.0467        25.0467      3456.4700       406.2770
         0.3105        52.9200        25.0467        25.0467      3516.5000       406.2770
         0.3103        52.8800        25.0467        25.0467      3576.5300       406.2770
         0.3102        52.8600        25.0467        25.0467      3605.3301       406.2770
         0.3102        52.8600        25.0467        25.0467      3605.4500       406.2770
         0.3102        52.8600        25.0467        25.0467      3605.5701       406.2770
         0.3157        53.8000        25.3733        25.3733      3605.6899       406.3750
         0.3299        56.2200        25.9200        25.9200      3605.8101       406.5450
         0.3431        58.4600        26.4067        26.4067      3605.9299       406.7240
         0.3575        60.9200        27.1200        27.1200      3606.0500       406.9320
         0.3709        63.2000        27.8000        27.8000      3606.1699       407.1400
         0.3833        65.3200        28.4133        28.4133      3606.2900       407.3410
         0.3947        67.2600        29.0267        29.0267      3606.4099       407.5380
         0.4057        69.1400        29.6067        29.6067      3606.5300       407.7320
         0.4158        70.8600        30.1933        30.1933      3606.6499       407.9210
         0.4257        72.5400        30.8067        30.8067      3606.7700       408.1090
         0.4354        74.2000        31.4200        31.4200      3606.8899       408.2990
         0.4447        75.7800        32.0333        32.0333      3607.0100       408.4900
         0.4541        77.3800        32.6867        32.6867      3607.1299       408.6810
         0.4625        78.8200        33.2667        33.2667      3607.2500       408.8630
         0.4707        80.2200        33.8467        33.8467      3607.3701       409.0420
         0.4786        81.5600        34.4667        34.4667      3607.4900       409.2230
         0.4864        82.8800        35.0800        35.0800      3607.6101       409.4020
         0.4941        84.2000        35.6933        35.6933      3607.7300       409.5830
         0.5009        85.3600        36.2733        36.2733      3607.8501       409.7540
         0.5077        86.5200        36.8600        36.8600      3607.9700       409.9270
         0.5148        87.7200        37.4400        37.4400      3608.0901       410.1020
         0.5218        88.9200        38.0533        38.0533      3608.2100       410.2830
         0.5286        90.0800        38.7000        38.7000      3608.3301       410.4610
         0.5349        91.1600        39.2867        39.2867      3608.4500       410.6340
         0.5412        92.2200        39.8333        39.8333      3608.5701       410.8060
         0.5476        93.3200        40.3867        40.3867      3608.6899       410.9840
         0.5541        94.4200        40.9667        40.9667      3608.8101       411.1620
         0.5604        95.5000        41.6133        41.6133      3608.9299       411.3420
         0.5665        96.5400        42.2600        42.2600      3609.0500       411.5250
         0.5729        97.6200        42.8800        42.8800      3609.1699       411.7090
         0.5786        98.6000        43.4600        43.4600      3609.2900       411.8840
         0.5840        99.5200        44.0733        44.0733      3609.4099       412.0520
         0.5893       100.4200        44.6600        44.6600      3609.5300       412.2210
         0.5943       101.2800        45.2733        45.2733      3609.6499       412.3920
         0.5994       102.1400        45.8867        45.8867      3609.7700       412.5650
         0.6043       102.9800        46.5000        46.5000      3609.8899       412.7320
         0.6091       103.8000        47.0200        47.0200      3610.0100       412.8970
         0.6137       104.5800        47.6000        47.6000      3610.1299       413.0600
         0.6187       105.4400        48.1867        48.1867      3610.2500       413.2370
         0.6238       106.3000        48.8000        48.8000      3610.3701       413.4120
         0.6286       107.1200        49.4133        49.4133      3610.4900       413.5890
         0.6332       107.9000        50.0267        50.0267      3610.6101       413.7630
   #     0.6225       106.0800        50.3200        50.3200      3611.1201       413.8270
   #     0.6133       104.5200        50.3533        50.3533      3611.6299       413.7940
   #     0.6033       102.8000        50.2200        50.2200      3612.1399       413.7220
   #     0.5967       101.6800        50.0933        50.0933      3612.6499       413.6760
   #     0.5925       100.9600        50.0600        50.0600      3613.1599       413.6590
         0.5890       100.3800        50.0267        50.0267      3613.6699       413.6530
         0.5864        99.9200        50.0267        50.0267      3614.1799       413.6530
         0.5840        99.5200        50.0267        50.0267      3614.6899       413.6530
         0.5815        99.1000        50.0267        50.0267      3615.2000       413.6530
         0.5795        98.7600        50.0267        50.0267      3615.7100       413.6530
         0.5777        98.4400        50.0267        50.0267      3616.2200       413.6530
         0.5759        98.1400        50.0267        50.0267      3616.7300       413.6520
         0.5743        97.8600        50.0267        50.0267      3617.2400       413.6520
         0.5727        97.6000        50.0267        50.0267      3617.7500       413.6520
         0.5712        97.3400        50.0267        50.0267      3618.2600       413.6520
         0.5698        97.1000        50.0267        50.0267      3618.7700       413.6520
         0.5685        96.8800        50.0267        50.0267      3619.2800       413.6520
         0.5673        96.6800        50.0267        50.0267      3619.7900       413.6520
         0.5663        96.5000        50.0267        50.0267      3620.3000       413.6520
         0.5652        96.3200        50.0267        50.0267      3620.8101       413.6520
         0.5641        96.1200        50.0267        50.0267      3621.3201       413.6520
         0.5631        95.9600        50.0267        50.0267      3621.8301       413.6520
         0.5622        95.8000        50.0267        50.0267      3622.3401       413.6520
         0.5612        95.6400        50.0267        50.0267      3622.8501       413.6520
         0.5604        95.5000        50.0267        50.0267      3623.3601       413.6520
         0.5596        95.3600        50.0267        50.0267      3623.8701       413.6520
         0.5588        95.2200        50.0267        50.0267      3624.3799       413.6520
         0.5578        95.0600        50.0267        50.0267      3624.8899       413.6520
         0.5571        94.9400        50.0267        50.0267      3625.3999       413.6520
         0.5564        94.8200        50.0267        50.0267      3625.9099       413.6520
         0.5557        94.7000        50.0267        50.0267      3626.4199       413.6520
         0.5550        94.5800        50.0267        50.0267      3626.9299       413.6520
         0.5544        94.4800        50.0267        50.0267      3627.4399       413.6520
         0.5537        94.3600        50.0267        50.0267      3627.9500       413.6520
         0.5531        94.2600        50.0267        50.0267      3628.4600       413.6520
         0.5524        94.1400        50.0267        50.0267      3628.9700       413.6520
         0.5520        94.0600        50.0267        50.0267      3629.4800       413.6520
         0.5514        93.9600        50.0267        50.0267      3629.9900       413.6520
         0.5508        93.8600        50.0267        50.0267      3630.5000       413.6520
         0.5502        93.7600        50.0267        50.0267      3631.0100       413.6520
         0.5496        93.6600        50.0267        50.0267      3631.5200       413.6520
         0.5493        93.6000        50.0267        50.0267      3632.0300       413.6520
         0.5487        93.5000        50.0267        50.0267      3632.5400       413.6520
         0.5482        93.4200        50.0267        50.0267      3633.0500       413.6520
         0.5477        93.3400        50.0267        50.0267      3633.5601       413.6520
         0.5473        93.2600        50.0267        50.0267      3634.0701       413.6520
         0.5468        93.1800        50.0267        50.0267      3634.5801       413.6520
         0.5464        93.1200        50.0267        50.0267      3635.0901       413.6520
         0.5459        93.0200        50.0267        50.0267      3635.6001       413.6520
         0.5454        92.9400        50.0267        50.0267      3636.1101       413.6520
         0.5450        92.8800        50.0267        50.0267      3636.6201       413.6520
         0.5447        92.8200        50.0267        50.0267      3637.1299       413.6520
         0.5442        92.7400        50.0267        50.0267      3637.6399       413.6520
         0.5439        92.6800        50.0267        50.0267      3638.1499       413.6520
         0.5435        92.6200        50.0267        50.0267      3638.6599       413.6520
         0.5430        92.5400        50.0267        50.0267      3639.1699       413.6520
         0.5427        92.4800        50.0267        50.0267      3639.6799       413.6520
         0.5422        92.4000        50.0267        50.0267      3640.1899       413.6520
         0.5183        88.3200        50.0267        50.0267      3700.2200       413.6130
         0.5089        86.7200        50.0267        50.0267      3760.2500       413.6130
         0.5027        85.6600        50.0267        50.0267      3820.2800       413.6130
         0.4983        84.9200        50.0267        50.0267      3880.3101       413.6130
         0.4948        84.3200        50.0267        50.0267      3940.3401       413.6130
         0.4919        83.8200        50.0267        50.0267      4000.3701       413.6130
         0.4895        83.4200        50.0267        50.0267      4060.3999       413.6130
         0.4873        83.0400        50.0267        50.0267      4120.4302       413.6130
         0.4854        82.7200        50.0267        50.0267      4180.4600       413.6130
         0.4838        82.4400        50.0267        50.0267      4240.4902       413.6130
         0.4822        82.1800        50.0267        50.0267      4300.5200       413.6130
         0.4810        81.9600        50.0267        50.0267      4360.5498       413.6130
         0.4795        81.7200        50.0267        50.0267      4420.5801       413.6130
         0.4784        81.5200        50.0267        50.0267      4480.6099       413.6130
         0.4773        81.3400        50.0267        50.0267      4540.6401       413.6130
         0.4763        81.1600        50.0267        50.0267      4600.6699       413.6130
         0.4753        81.0000        50.0267        50.0267      4660.7002       413.6130
         0.4744        80.8400        50.0267        50.0267      4720.7300       413.6130
         0.4734        80.6800        50.0267        50.0267      4780.7598       413.6130
         0.4726        80.5400        50.0267        50.0267      4840.7900       413.6130
         0.4719        80.4200        50.0267        50.0267      4900.8198       413.6130
         0.4711        80.2800        50.0267        50.0267      4960.8501       413.6130
         0.4705        80.1800        50.0267        50.0267      5020.8799       413.6130
         0.4697        80.0400        50.0267        50.0267      5080.9102       413.6130
         0.4691        79.9400        50.0267        50.0267      5140.9399       413.6130
         0.4684        79.8200        50.0267        50.0267      5200.9702       413.6130
         0.4678        79.7200        50.0267        50.0267      5261.0000       413.6130
         0.4672        79.6200        50.0267        50.0267      5321.0298       413.6130
         0.4666        79.5200        50.0267        50.0267      5381.0601       413.6130
         0.4662        79.4400        50.0267        50.0267      5441.0898       413.6130
         0.4656        79.3400        50.0267        50.0267      5501.1201       413.6130
         0.4650        79.2400        50.0267        50.0267      5561.1499       413.6130
         0.4645        79.1600        50.0267        50.0267      5621.1802       413.6130
         0.4639        79.0600        50.0267        50.0267      5681.2100       413.6130
         0.4636        79.0000        50.0267        50.0267      5741.2402       413.6130
         0.4631        78.9200        50.0267        50.0267      5801.2700       413.6130
         0.4626        78.8400        50.0267        50.0267      5861.2998       413.6130
         0.4628        78.8600        50.0267        50.0267      5921.3301       413.6550
         0.4623        78.7800        50.0267        50.0267      5981.3599       413.6550
         0.4618        78.7000        50.0267        50.0267      6041.3901       413.6550
         0.4615        78.6400        50.0267        50.0267      6101.4199       413.6550
         0.4610        78.5600        50.0267        50.0267      6161.4502       413.6550
         0.4605        78.4800        50.0267        50.0267      6221.4800       413.6550
         0.4602        78.4200        50.0267        50.0267      6281.5098       413.6550
         0.4598        78.3600        50.0267        50.0267      6341.5400       413.6550
         0.4595        78.3000        50.0267        50.0267      6401.5698       413.6550
         0.4590        78.2200        50.0267        50.0267      6461.6001       413.6550
         0.4588        78.1800        50.0267        50.0267      6521.6299       413.6550
         0.4583        78.1000        50.0267        50.0267      6581.6602       413.6550
         0.4581        78.0600        50.0267        50.0267      6641.6899       413.6550
         0.4577        78.0000        50.0267        50.0267      6701.7202       413.6550
         0.4575        77.9600        50.0267        50.0267      6761.7500       413.6550
         0.4571        77.9000        50.0267        50.0267      6821.7798       413.6550
         0.4568        77.8400        50.0267        50.0267      6881.8101       413.6550
         0.4565        77.8000        50.0267        50.0267      6941.8398       413.6550
         0.4562        77.7400        50.0267        50.0267      7001.8701       413.6550
         0.4558        77.6800        50.0267        50.0267      7061.8999       413.6550
         0.4556        77.6400        50.0267        50.0267      7121.9302       413.6550
         0.4553        77.5800        50.0267        50.0267      7181.9600       413.6550
         0.4551        77.5600        50.0267        50.0267      7210.6401       413.6550
         0.4555        77.6200        50.0267        50.0267      7210.7598       413.6690
         0.4588        78.1800        50.1933        50.1933      7210.8799       413.7170
         0.4619        78.7200        50.3533        50.3533      7211.0000       413.7690
         0.4705        80.1800        50.9000        50.9000      7211.1201       413.9390
         0.4811        81.9800        51.5467        51.5467      7211.2402       414.1300
         0.4911        83.6800        52.2267        52.2267      7211.3599       414.3220
         0.4997        85.1600        52.8733        52.8733      7211.4800       414.5080
         0.5083        86.6200        53.4933        53.4933      7211.6001       414.6940
         0.5164        88.0000        54.1067        54.1067      7211.7202       414.8770
         0.5239        89.2800        54.7200        54.7200      7211.8398       415.0560
         0.5312        90.5200        55.3667        55.3667      7211.9600       415.2340
         0.5379        91.6600        55.9533        55.9533      7212.0801       415.4060
         0.5448        92.8400        56.4667        56.4667      7212.2002       415.5780
         0.5514        93.9600        57.0800        57.0800      7212.3198       415.7560
         0.5578        95.0600        57.7600        57.7600      7212.4399       415.9350
         0.5641        96.1200        58.4067        58.4067      7212.5601       416.1100
         0.5697        97.0800        58.9933        58.9933      7212.6802       416.2750
         0.5754        98.0600        59.5400        59.5400      7212.7998       416.4400
         0.5812        99.0400        60.0933        60.0933      7212.9199       416.6060
         0.5869       100.0200        60.6400        60.6400      7213.0400       416.7740
         0.5926       100.9800        61.2600        61.2600      7213.1602       416.9460
         0.5986       102.0000        61.8733        61.8733      7213.2798       417.1240
         0.6045       103.0200        62.4867        62.4867      7213.3999       417.3040
         0.6102       103.9800        63.0667        63.0667      7213.5200       417.4760
         0.6157       104.9200        63.6533        63.6533      7213.6401       417.6500
         0.6209       105.8000        64.2333        64.2333      7213.7598       417.8230
         0.6261       106.7000        64.8467        64.8467      7213.8799       417.9980
         0.6313       107.5800        65.4667        65.4667      7214.0000       418.1740
         0.6363       108.4400        66.0800        66.0800      7214.1201       418.3470
         0.6413       109.2800        66.6933        66.6933      7214.2402       418.5190
         0.6462       110.1200        67.2733        67.2733      7214.3599       418.6910
         0.6511       110.9600        67.8267        67.8267      7214.4800       418.8620
         0.6558       111.7600        68.4400        68.4400      7214.6001       419.0350
         0.6605       112.5600        69.0533        69.0533      7214.7202       419.2060
         0.6651       113.3400        69.7067        69.7067      7214.8398       419.3770
         0.6697       114.1200        70.2867        70.2867      7214.9600       419.5480
         0.6740       114.8600        70.8067        70.8067      7215.0801       419.7120
         0.6781       115.5600        71.4200        71.4200      7215.2002       419.8760
         0.6826       116.3200        72.0000        72.0000      7215.3198       420.0460
         0.6873       117.1200        72.6133        72.6133      7215.4399       420.2180
         0.6919       117.9000        73.2000        73.2000      7215.5601       420.3900
         0.6960       118.6000        73.8133        73.8133      7215.6802       420.5610
         0.7003       119.3400        74.4267        74.4267      7215.7998       420.7330
         0.7044       120.0400        75.0733        75.0733      7215.9199       420.9020
    #    0.6949       118.4200        75.4000        75.4000      7216.4302       420.9680
    #    0.6865       116.9800        75.4000        75.4000      7216.9399       420.9310
    #    0.6775       115.4600        75.3000        75.3000      7217.4502       420.8610
    #    0.6714       114.4200        75.1400        75.1400      7217.9600       420.8110
    #    0.6677       113.7800        75.1067        75.1067      7218.4702       420.7910
         0.6647       113.2800        75.0733        75.0733      7218.9800       420.7820
         0.6625       112.9000        75.0733        75.0733      7219.4902       420.7810
         0.6603       112.5200        75.0733        75.0733      7220.0000       420.7800
         0.6583       112.1800        75.0733        75.0733      7220.5098       420.7790
         0.6565       111.8800        75.0733        75.0733      7221.0200       420.7790
         0.6549       111.6000        75.0733        75.0733      7221.5298       420.7790
         0.6535       111.3600        75.0733        75.0733      7222.0400       420.7790
         0.6521       111.1200        75.0733        75.0733      7222.5498       420.7790
         0.6508       110.9000        75.0733        75.0733      7223.0601       420.7790
         0.6495       110.6800        75.0733        75.0733      7223.5698       420.7790
         0.6484       110.5000        75.0733        75.0733      7224.0801       420.7790
         0.6473       110.3000        75.0733        75.0733      7224.5898       420.7790
         0.6462       110.1200        75.0733        75.0733      7225.1001       420.7790
         0.6453       109.9600        75.0733        75.0733      7225.6099       420.7790
         0.6443       109.8000        75.0733        75.0733      7226.1201       420.7790
         0.6435       109.6600        75.0733        75.0733      7226.6299       420.7790
         0.6426       109.5000        75.0733        75.0733      7227.1401       420.7790
         0.6417       109.3600        75.0733        75.0733      7227.6499       420.7790
         0.6409       109.2200        75.0733        75.0733      7228.1602       420.7790
         0.6402       109.1000        75.0733        75.0733      7228.6699       420.7790
    #    0.6395       108.9800        75.1067        75.1067      7229.1802       420.7770
    #    0.6385       108.8000        75.1067        75.1067      7229.6899       420.7740
    #    0.6374       108.6200        75.1067        75.1067      7230.2002       420.7660
    #    0.6362       108.4200        75.1067        75.1067      7230.7100       420.7540
         0.6354       108.2800        75.0733        75.0733      7231.2202       420.7470
         0.6347       108.1600        75.0733        75.0733      7231.7300       420.7450
         0.6341       108.0600        75.0733        75.0733      7232.2402       420.7440
         0.6336       107.9800        75.0733        75.0733      7232.7500       420.7430
         0.6332       107.9000        75.0733        75.0733      7233.2598       420.7430
         0.6326       107.8000        75.0733        75.0733      7233.7700       420.7430
         0.6321       107.7200        75.0733        75.0733      7234.2798       420.7430
         0.6317       107.6400        75.0733        75.0733      7234.7900       420.7430
         0.6312       107.5600        75.0733        75.0733      7235.2998       420.7430
         0.6306       107.4600        75.0733        75.0733      7235.8101       420.7430
         0.6304       107.4200        75.0733        75.0733      7236.3198       420.7430
         0.6298       107.3200        75.0733        75.0733      7236.8301       420.7430
         0.6294       107.2600        75.0733        75.0733      7237.3398       420.7430
         0.6290       107.1800        75.0733        75.0733      7237.8501       420.7420
         0.6287       107.1400        75.0733        75.0733      7238.3599       420.7420
         0.6281       107.0400        75.0733        75.0733      7238.8701       420.7420
         0.6278       106.9800        75.0733        75.0733      7239.3799       420.7420
         0.6274       106.9200        75.0733        75.0733      7239.8901       420.7420
         0.6271       106.8600        75.0733        75.0733      7240.3999       420.7420
         0.6266       106.7800        75.0733        75.0733      7240.9102       420.7420
         0.6263       106.7200        75.0733        75.0733      7241.4199       420.7420
         0.6260       106.6800        75.0733        75.0733      7241.9302       420.7420
         0.6257       106.6200        75.0733        75.0733      7242.4399       420.7420
         0.6252       106.5400        75.0733        75.0733      7242.9502       420.7420
         0.6250       106.5000        75.0733        75.0733      7243.4600       420.7420
         0.6246       106.4400        75.0733        75.0733      7243.9702       420.7420
         0.6243       106.3800        75.0733        75.0733      7244.4800       420.7420
         0.6240       106.3400        75.0733        75.0733      7244.9902       420.7420
         0.6237       106.2800        75.0733        75.0733      7245.5000       420.7420
         0.6045       103.0200        75.0733        75.0733      7305.5000       420.7420
         0.5948       101.3600        75.0733        75.0733      7365.5298       420.7020
         0.5895       100.4600        75.0733        75.0733      7425.5601       420.7020
         0.5856        99.8000        75.0733        75.0733      7485.5898       420.7020
         0.5825        99.2600        75.0733        75.0733      7545.6201       420.7020
         0.5799        98.8200        75.0733        75.0733      7605.6499       420.7020
         0.5777        98.4400        75.0733        75.0733      7665.6802       420.7020
         0.5757        98.1000        75.0733        75.0733      7725.7100       420.7020
         0.5740        97.8200        75.0733        75.0733      7785.7402       420.7020
         0.5724        97.5400        75.0733        75.0733      7845.7700       420.7020
         0.5710        97.3000        75.0733        75.0733      7905.7998       420.7020
         0.5697        97.0800        75.0733        75.0733      7965.8301       420.7020
         0.5685        96.8800        75.0733        75.0733      8025.8599       420.7020
         0.5673        96.6800        75.0733        75.0733      8085.8901       420.7020
         0.5663        96.5000        75.0733        75.0733      8145.9199       420.7020
         0.5653        96.3400        75.0733        75.0733      8205.9502       420.7020
         0.5643        96.1600        75.0733        75.0733      8265.9805       420.7020
         0.5635        96.0200        75.0733        75.0733      8326.0098       420.7020
         0.5610        95.6000        75.0733        75.0733      8386.0400       420.6580
         0.5604        95.5000        75.0733        75.0733      8446.0703       420.6580
         0.5597        95.3800        75.0733        75.0733      8506.0996       420.6580
         0.5591        95.2800        75.0733        75.0733      8566.1299       420.6580
         0.5584        95.1600        75.0733        75.0733      8626.1602       420.6580
         0.5578        95.0600        75.0733        75.0733      8686.1904       420.6580
         0.5571        94.9400        75.0733        75.0733      8746.2197       420.6580
         0.5565        94.8400        75.0733        75.0733      8806.2500       420.6580
         0.5558        94.7200        75.0733        75.0733      8866.2803       420.6580
         0.5554        94.6400        75.0733        75.0733      8926.3096       420.6580
         0.5547        94.5200        75.0733        75.0733      8986.3398       420.6580
         0.5541        94.4200        75.0733        75.0733      9046.3701       420.6580
         0.5536        94.3400        75.0733        75.0733      9106.4004       420.6580
         0.5530        94.2400        75.0733        75.0733      9166.4297       420.6580
         0.5525        94.1600        75.0733        75.0733      9226.4600       420.6580
         0.5521        94.0800        75.0733        75.0733      9286.4902       420.6580
         0.5516        94.0000        75.0733        75.0733      9346.5195       420.6580
         0.5511        93.9200        75.0733        75.0733      9406.5498       420.6580
         0.5507        93.8400        75.0733        75.0733      9466.5801       420.6580
         0.5502        93.7600        75.0733        75.0733      9526.6104       420.6580
         0.5497        93.6800        75.0733        75.0733      9586.6396       420.6580
         0.5493        93.6000        75.0733        75.0733      9646.6699       420.6580
         0.5490        93.5600        75.0733        75.0733      9706.7002       420.6580
         0.5484        93.4600        75.0733        75.0733      9766.7305       420.6580
         0.5481        93.4000        75.0733        75.0733      9826.7598       420.6580
         0.5476        93.3200        75.0733        75.0733      9886.7900       420.6580
         0.5473        93.2600        75.0733        75.0733      9946.8203       420.6580
         0.5469        93.2000        75.0733        75.0733     10006.8496       420.6580
         0.5466        93.1400        75.0733        75.0733     10066.8799       420.6580
         0.5462        93.0800        75.0733        75.0733     10126.9102       420.6580
         0.5459        93.0200        75.0733        75.0733     10186.9404       420.6580
         0.5456        92.9800        75.0733        75.0733     10246.9697       420.6580
         0.5452        92.9000        75.0733        75.0733     10307.0000       420.6580
         0.5448        92.8400        75.0733        75.0733     10367.0303       420.6580
         0.5446        92.8000        75.0733        75.0733     10427.0596       420.6580
         0.5442        92.7400        75.0733        75.0733     10487.0898       420.6580
         0.5439        92.6800        75.0733        75.0733     10547.1201       420.6580
         0.5436        92.6400        75.0733        75.0733     10607.1504       420.6580
         0.5433        92.5800        75.0733        75.0733     10667.1797       420.6580
         0.5429        92.5200        75.0733        75.0733     10727.2100       420.6580
         0.5427        92.4800        75.0733        75.0733     10787.2402       420.6580
         0.5425        92.4400        75.0733        75.0733     10815.9502       420.6580
         0.5425        92.4400        75.0733        75.0733     10816.0703       420.6580
         0.5425        92.4400        75.0733        75.0733     10816.1904       420.6890
         0.5464        93.1200        75.3000        75.3000     10816.3096       420.7650
         0.5515        93.9800        75.5933        75.5933     10816.4297       420.8660
         0.5628        95.9000        76.3400        76.3400     10816.5498       421.0930
         0.5734        97.7200        77.1467        77.1467     10816.6699       421.3200
         0.5828        99.3200        77.8267        77.8267     10816.7900       421.5350
         0.5915       100.8000        78.5067        78.5067     10816.9102       421.7360
         0.5998       102.2200        79.2200        79.2200     10817.0303       421.9390
         0.6065       103.3600        79.8333        79.8333     10817.1504       422.1160
         0.6132       104.5000        80.3467        80.3467     10817.2695       422.2920
         0.6200       105.6600        80.9333        80.9333     10817.3896       422.4680
         0.6264       106.7400        81.5133        81.5133     10817.5098       422.6440
         0.6326       107.8000        82.1000        82.1000     10817.6299       422.8190
         0.6393       108.9400        82.7133        82.7133     10817.7500       423.0040
         0.6459       110.0600        83.2933        83.2933     10817.8701       423.1870
         0.6522       111.1400        83.8800        83.8800     10817.9902       423.3680
         0.6585       112.2200        84.4933        84.4933     10818.1104       423.5480
         0.6649       113.3000        85.0733        85.0733     10818.2305       423.7290
         0.6707       114.3000        85.7200        85.7200     10818.3496       423.9080
         0.6767       115.3200        86.3067        86.3067     10818.4697       424.0880
         0.6824       116.2800        86.9200        86.9200     10818.5898       424.2680
         0.6880       117.2400        87.5333        87.5333     10818.7100       424.4470
         0.6939       118.2400        88.1133        88.1133     10818.8301       424.6270
         0.6994       119.1800        88.6333        88.6333     10818.9502       424.7990
         0.7048       120.1000        89.1867        89.1867     10819.0703       424.9720
         0.7105       121.0800        89.7667        89.7667     10819.1904       425.1540
         0.7169       122.1600        90.3467        90.3467     10819.3096       425.3450
         0.7232       123.2400        90.9933        90.9933     10819.4297       425.5370
         0.7292       124.2600        91.6467        91.6467     10819.5498       425.7290
         0.7353       125.3000        92.2600        92.2600     10819.6699       425.9200
         0.7409       126.2600        92.8400        92.8400     10819.7900       426.1040
         0.7464       127.2000        93.4200        93.4200     10819.9102       426.2810
         0.7518       128.1200        93.9733        93.9733     10820.0303       426.4570
         0.7572       129.0400        94.5867        94.5867     10820.1504       426.6400
         0.7630       130.0200        95.1400        95.1400     10820.2695       426.8240
         0.7690       131.0400        95.7200        95.7200     10820.3896       427.0120
         0.7748       132.0400        96.3333        96.3333     10820.5098       427.2030
         0.7807       133.0400        96.9200        96.9200     10820.6299       427.3950
         0.7866       134.0400        97.5333        97.5333     10820.7500       427.5830
         0.7923       135.0200        98.1467        98.1467     10820.8701       427.7700
         0.7977       135.9400        98.7600        98.7600     10820.9902       427.9570
         0.8036       136.9400        99.3133        99.3133     10821.1104       428.1390
    #
         0.8091       137.8800       100.0600        99.8933     10821.2305       428.3250
    #
    #    0.7994       136.2200       100.3800       100.3800     10821.7402       428.4470
    #    0.7893       134.5000       100.4133       100.4133     10822.2500       428.4130
    #    0.7786       132.6800       100.2533       100.2533     10822.7598       428.3380
    #    0.7717       131.5000       100.1533       100.1533     10823.2695       428.2920
    #    0.7671       130.7200       100.0867       100.0867     10823.7803       428.2700
    #    0.7637       130.1400       100.0867       100.0867     10824.2900       428.2610
    #    0.7604       129.5800       100.0867       100.0867     10824.7998       428.2510
         0.7577       129.1200       100.0600       100.0600     10825.3096       428.2440
         0.7556       128.7600       100.0600       100.0600     10825.8203       428.2440
         0.7537       128.4400       100.0600       100.0600     10826.3301       428.2430
         0.7520       128.1400       100.0600       100.0600     10826.8398       428.2430
         0.7503       127.8600       100.0600       100.0600     10827.3496       428.2430
         0.7488       127.6000       100.0600       100.0600     10827.8604       428.2430
         0.7474       127.3600       100.0600       100.0600     10828.3701       428.2430
         0.7460       127.1200       100.0600       100.0600     10828.8799       428.2430
         0.7447       126.9000       100.0600       100.0600     10829.3896       428.2430
         0.7435       126.7000       100.0600       100.0600     10829.9004       428.2430
         0.7423       126.5000       100.0600       100.0600     10830.4102       428.2430
         0.7412       126.3000       100.0600       100.0600     10830.9199       428.2430
         0.7402       126.1400       100.0600       100.0600     10831.4297       428.2430
         0.7393       125.9800       100.0600       100.0600     10831.9404       428.2430
         0.7382       125.8000       100.0600       100.0600     10832.4502       428.2430
         0.7374       125.6600       100.0600       100.0600     10832.9600       428.2430
         0.7366       125.5200       100.0600       100.0600     10833.4697       428.2430
         0.7356       125.3600       100.0600       100.0600     10833.9805       428.2430
         0.7349       125.2400       100.0600       100.0600     10834.4902       428.2430
         0.7341       125.1000       100.0600       100.0600     10835.0000       428.2430
  #      0.7333       124.9600       100.0867       100.0867     10835.5098       428.2410
  #      0.7319       124.7200       100.0867       100.0867     10836.0195       428.2310
  #      0.7308       124.5400       100.0867       100.0867     10836.5303       428.2250
  #      0.7299       124.3800       100.0867       100.0867     10837.0400       428.2190
         0.7288       124.2000       100.0600       100.0600     10837.5498       428.2090
         0.7284       124.1200       100.0600       100.0600     10838.0596       428.2080
         0.7277       124.0000       100.0600       100.0600     10838.5703       428.2080
         0.7272       123.9200       100.0600       100.0600     10839.0801       428.2080
         0.7266       123.8200       100.0600       100.0600     10839.5898       428.2080
         0.7261       123.7400       100.0600       100.0600     10840.0996       428.2080
         0.7257       123.6600       100.0600       100.0600     10840.6104       428.2080
         0.7252       123.5800       100.0600       100.0600     10841.1201       428.2080
         0.7246       123.4800       100.0600       100.0600     10841.6299       428.2080
         0.7240       123.3800       100.0600       100.0600     10842.1396       428.2070
         0.7237       123.3200       100.0600       100.0600     10842.6504       428.2070
         0.7232       123.2400       100.0600       100.0600     10843.1602       428.2070
         0.7227       123.1600       100.0600       100.0600     10843.6699       428.2070
         0.7224       123.1000       100.0600       100.0600     10844.1797       428.2070
         0.7220       123.0400       100.0600       100.0600     10844.6904       428.2070
         0.7214       122.9400       100.0600       100.0600     10845.2002       428.2070
         0.7211       122.8800       100.0600       100.0600     10845.7100       428.2070
         0.7206       122.8000       100.0600       100.0600     10846.2197       428.2070
         0.7203       122.7400       100.0600       100.0600     10846.7305       428.2070
         0.7199       122.6800       100.0600       100.0600     10847.2402       428.2070
         0.7194       122.6000       100.0600       100.0600     10847.7500       428.2070
         0.7191       122.5400       100.0600       100.0600     10848.2598       428.2070
         0.7187       122.4800       100.0600       100.0600     10848.7695       428.2070
         0.7184       122.4200       100.0600       100.0600     10849.2803       428.2070
         0.7182       122.3800       100.0600       100.0600     10849.7900       428.2070
         0.7177       122.3000       100.0600       100.0600     10850.2998       428.2070
         0.7173       122.2400       100.0600       100.0600     10850.8096       428.2070
    #    0.6948       118.4000       100.0867       100.0867     10910.8398       428.1840
         0.6854       116.8000       100.0600       100.0600     10970.8701       428.1670
         0.6793       115.7600       100.0600       100.0600     11030.9004       428.1670
         0.6748       115.0000       100.0600       100.0600     11090.9297       428.1670
         0.6713       114.4000       100.0600       100.0600     11150.9600       428.1670
         0.6683       113.8800       100.0600       100.0600     11210.9902       428.1670
         0.6643       113.2000       100.0600       100.0600     11271.0195       428.1320
         0.6624       112.8800       100.0600       100.0600     11331.0498       428.1310
         0.6605       112.5600       100.0600       100.0600     11391.0801       428.1310
         0.6588       112.2600       100.0600       100.0600     11451.1104       428.1310
         0.6572       112.0000       100.0600       100.0600     11511.1396       428.1310
         0.6558       111.7600       100.0600       100.0600     11571.1699       428.1310
         0.6529       111.2600       100.0600       100.0600     11631.2002       428.0950
         0.6518       111.0800       100.0600       100.0600     11691.2305       428.0950
         0.6507       110.8800       100.0600       100.0600     11751.2598       428.0950
         0.6497       110.7200       100.0600       100.0600     11811.2900       428.0950
         0.6487       110.5400       100.0600       100.0600     11871.3203       428.0950
         0.6477       110.3800       100.0600       100.0600     11931.3496       428.0950
         0.6467       110.2000       100.0600       100.0600     11991.3799       428.0950
         0.6459       110.0600       100.0600       100.0600     12051.4102       428.0950
         0.6450       109.9200       100.0600       100.0600     12111.4404       428.0950
         0.6442       109.7800       100.0600       100.0600     12171.4697       428.0950
         0.6434       109.6400       100.0600       100.0600     12231.5000       428.0950
         0.6426       109.5000       100.0600       100.0600     12291.5303       428.0950
         0.6420       109.4000       100.0600       100.0600     12351.5596       428.0950
         0.6410       109.2400       100.0600       100.0600     12411.5898       428.0950
         0.6405       109.1400       100.0600       100.0600     12471.6201       428.0950
         0.6399       109.0400       100.0600       100.0600     12531.6504       428.0950
         0.6392       108.9200       100.0600       100.0600     12591.6797       428.0950
         0.6386       108.8200       100.0600       100.0600     12651.7100       428.0950
         0.6379       108.7000       100.0600       100.0600     12711.7402       428.0950
         0.6374       108.6200       100.0600       100.0600     12771.7695       428.0950
         0.6367       108.5000       100.0600       100.0600     12831.7998       428.0950
         0.6362       108.4200       100.0600       100.0600     12891.8301       428.0950
         0.6358       108.3400       100.0600       100.0600     12951.8604       428.0950
         0.6352       108.2400       100.0600       100.0600     13011.8896       428.0950
         0.6346       108.1400       100.0600       100.0600     13071.9199       428.0950
         0.6341       108.0600       100.0600       100.0600     13131.9502       428.0950
         0.6319       107.6800       100.0600       100.0600     13191.9805       428.0560
         0.6318       107.6600       100.0600       100.0600     13252.0098       428.0560
         0.6313       107.5800       100.0600       100.0600     13312.0400       428.0560
         0.6308       107.5000       100.0600       100.0600     13372.0703       428.0560
         0.6305       107.4400       100.0600       100.0600     13432.0996       428.0560
         0.6300       107.3600       100.0600       100.0600     13492.1299       428.0560
         0.6295       107.2800       100.0600       100.0600     13552.1602       428.0560
         0.6291       107.2000       100.0600       100.0600     13612.1904       428.0560
         0.6287       107.1400       100.0600       100.0600     13672.2197       428.0560
         0.6282       107.0600       100.0600       100.0600     13732.2500       428.0560
         0.6278       106.9800       100.0600       100.0600     13792.2803       428.0560
         0.6275       106.9400       100.0600       100.0600     13852.3096       428.0560
         0.6271       106.8600       100.0600       100.0600     13912.3398       428.0560
         0.6267       106.8000       100.0600       100.0600     13972.3701       428.0560
         0.6264       106.7400       100.0600       100.0600     14032.4004       428.0560
         0.6260       106.6800       100.0600       100.0600     14092.4297       428.0560
         0.6256       106.6000       100.0600       100.0600     14152.4600       428.0560
         0.6252       106.5400       100.0600       100.0600     14212.4902       428.0560
         0.6248       106.4800       100.0600       100.0600     14272.5195       428.0560
         0.6246       106.4400       100.0600       100.0600     14332.5498       428.0560
         0.6241       106.3600       100.0600       100.0600     14392.5801       428.0560
         0.6240       106.3400       100.0600       100.0600     14421.2900       428.0560
         0.6240       106.3400       100.0600       100.0600     14421.4102       428.0560
         0.6240       106.3400       100.0600       100.0600     14421.5303       428.0500
         0.6166       105.0800        99.6667        99.6667     14421.6504       427.9090
         0.6092       103.8200        99.2133        99.2133     14421.7695       427.7710
         0.6006       102.3400        98.6000        98.6000     14421.8896       427.5890
         0.5909       100.7000        97.9533        97.9533     14422.0098       427.3820
         0.5814        99.0800        97.3067        97.3067     14422.1299       427.1720
         0.5734        97.7200        96.6267        96.6267     14422.2500       426.9760
         0.5660        96.4600        96.0133        96.0133     14422.3701       426.7810
         0.5589        95.2400        95.4267        95.4267     14422.4902       426.5930
         0.5524        94.1400        94.8467        94.8467     14422.6104       426.4130
         0.5463        93.1000        94.2333        94.2333     14422.7305       426.2330
         0.5402        92.0600        93.6467        93.6467     14422.8496       426.0530
         0.5342        91.0400        93.0667        93.0667     14422.9697       425.8730
         0.5281        90.0000        92.4533        92.4533     14423.0898       425.6910
         0.5223        89.0000        91.8400        91.8400     14423.2100       425.5080
         0.5166        88.0400        91.1933        91.1933     14423.3301       425.3250
         0.5115        87.1600        90.6067        90.6067     14423.4502       425.1520
         0.5064        86.3000        90.0267        90.0267     14423.5703       424.9790
         0.5013        85.4200        89.4733        89.4733     14423.6904       424.8030
         0.4957        84.4800        88.9267        88.9267     14423.8096       424.6230
         0.4902        83.5400        88.3400        88.3400     14423.9297       424.4430
         0.4846        82.5800        87.6600        87.6600     14424.0498       424.2520
         0.4791        81.6400        86.9867        86.9867     14424.1699       424.0610
         0.4743        80.8200        86.3667        86.3667     14424.2900       423.8810
         0.4696        80.0200        85.7533        85.7533     14424.4102       423.7130
         0.4653        79.3000        85.1733        85.1733     14424.5303       423.5440
         0.4610        78.5600        84.6200        84.6200     14424.6504       423.3790
         0.4564        77.7800        84.0733        84.0733     14424.7695       423.2150
         0.4519        77.0000        83.5200        83.5200     14424.8896       423.0430
         0.4467        76.1200        82.9400        82.9400     14425.0098       422.8640
         0.4419        75.3000        82.2600        82.2600     14425.1299       422.6840
         0.4372        74.5000        81.6133        81.6133     14425.2500       422.5050
         0.4324        73.6800        81.0267        81.0267     14425.3701       422.3250
         0.4274        72.8400        80.5133        80.5133     14425.4902       422.1490
         0.4227        72.0400        79.9267        79.9267     14425.6104       421.9760
         0.4185        71.3200        79.3133        79.3133     14425.7305       421.8050
         0.4139        70.5400        78.7000        78.7000     14425.8496       421.6280
         0.4091        69.7200        78.0867        78.0867     14425.9697       421.4540
         0.4046        68.9400        77.4667        77.4667     14426.0898       421.2790
         0.4004        68.2400        76.8200        76.8200     14426.2100       421.1070
         0.3961        67.5000        76.2400        76.2400     14426.3301       420.9340 
         0.3916        66.7400        75.7533        75.7533     14426.4502       420.7700
  #
         0.3850        66.0600        75.0133        75.1400     14426.5703       420.6050
  #
  #      0.3922        66.8400        74.7200        74.7200     14427.0801       420.4790
  #      0.3981        67.8400        74.7200        74.7200     14427.5898       420.5000
  #      0.4051        69.0400        74.8467        74.8467     14428.0996       420.5570
  #      0.4097        69.8200        74.9467        74.9467     14428.6104       420.5890
         0.4128        70.3400        75.0133        75.0133     14429.1201       420.6020
         0.4148        70.6800        75.0133        75.0133     14429.6299       420.6020
         0.4169        71.0400        75.0133        75.0133     14430.1396       420.6020
         0.4185        71.3200        75.0133        75.0133     14430.6504       420.6020
         0.4203        71.6200        75.0133        75.0133     14431.1602       420.6020
         0.4218        71.8800        75.0133        75.0133     14431.6699       420.6020
         0.4231        72.1000        75.0133        75.0133     14432.1797       420.6020
         0.4244        72.3200        75.0133        75.0133     14432.6904       420.6020
         0.4256        72.5200        75.0133        75.0133     14433.2002       420.6020
         0.4266        72.7000        75.0133        75.0133     14433.7100       420.6020
         0.4277        72.8800        75.0133        75.0133     14434.2197       420.6020
         0.4287        73.0600        75.0133        75.0133     14434.7305       420.6030
         0.4296        73.2000        75.0133        75.0133     14435.2402       420.6030
         0.4304        73.3400        75.0133        75.0133     14435.7500       420.6030
         0.4313        73.5000        75.0133        75.0133     14436.2598       420.6030
         0.4321        73.6400        75.0133        75.0133     14436.7695       420.6030
         0.4328        73.7600        75.0133        75.0133     14437.2803       420.6030
         0.4335        73.8800        75.0133        75.0133     14437.7900       420.6030
         0.4341        73.9800        75.0133        75.0133     14438.2998       420.6030
         0.4350        74.1200        75.0133        75.0133     14438.8096       420.6030
         0.4355        74.2200        75.0133        75.0133     14439.3203       420.6030
         0.4361        74.3200        75.0133        75.0133     14439.8301       420.6030
         0.4367        74.4200        75.0133        75.0133     14440.3398       420.6030
         0.4372        74.5000        75.0133        75.0133     14440.8496       420.6030
         0.4378        74.6000        75.0133        75.0133     14441.3604       420.6030
         0.4382        74.6800        75.0133        75.0133     14441.8701       420.6030
         0.4389        74.8000        75.0133        75.0133     14442.3799       420.6030
         0.4393        74.8600        75.0133        75.0133     14442.8896       420.6030
         0.4399        74.9600        75.0133        75.0133     14443.4004       420.6030
         0.4402        75.0200        75.0133        75.0133     14443.9102       420.6030
         0.4407        75.1000        75.0133        75.0133     14444.4199       420.6030
         0.4412        75.1800        75.0133        75.0133     14444.9297       420.6030
         0.4415        75.2400        75.0133        75.0133     14445.4404       420.6030
         0.4420        75.3200        75.0133        75.0133     14445.9502       420.6040
         0.4423        75.3800        75.0133        75.0133     14446.4600       420.6040
         0.4428        75.4600        75.0133        75.0133     14446.9697       420.6040
         0.4432        75.5200        75.0133        75.0133     14447.4805       420.6040
         0.4435        75.5800        75.0133        75.0133     14447.9902       420.6040
         0.4440        75.6600        75.0133        75.0133     14448.5000       420.6040
         0.4442        75.7000        75.0133        75.0133     14449.0098       420.6040
         0.4446        75.7600        75.0133        75.0133     14449.5195       420.6040
         0.4449        75.8200        75.0133        75.0133     14450.0303       420.6040
         0.4453        75.8800        75.0133        75.0133     14450.5400       420.6040
         0.4456        75.9400        75.0133        75.0133     14451.0498       420.6040
         0.4460        76.0000        75.0133        75.0133     14451.5596       420.6040
         0.4462        76.0400        75.0133        75.0133     14452.0703       420.6040
         0.4466        76.1000        75.0133        75.0133     14452.5801       420.6040
         0.4468        76.1400        75.0133        75.0133     14453.0898       420.6040
         0.4470        76.1800        75.0133        75.0133     14453.5996       420.6040
         0.4474        76.2400        75.0133        75.0133     14454.1104       420.6040
         0.4476        76.2800        75.0133        75.0133     14454.6201       420.6040
         0.4481        76.3600        75.0133        75.0133     14455.1299       420.6040
         0.4482        76.3800        75.0133        75.0133     14455.6396       420.6040
         0.4484        76.4200        75.0133        75.0133     14456.1504       420.6040
         0.4646        79.1800        75.0133        75.0133     14516.1797       420.6040
         0.4715        80.3400        75.0133        75.0133     14576.2100       420.6040
         0.4757        81.0600        75.0133        75.0133     14636.2402       420.6040
         0.4786        81.5600        75.0133        75.0133     14696.2695       420.6040
         0.4808        81.9400        75.0133        75.0133     14756.2998       420.6040
         0.4827        82.2600        75.0133        75.0133     14816.3301       420.6040
         0.4842        82.5200        75.0133        75.0133     14876.3604       420.6040
         0.4855        82.7400        75.0133        75.0133     14936.3896       420.6040
         0.4866        82.9200        75.0133        75.0133     14996.4199       420.6040
         0.4875        83.0800        75.0133        75.0133     15056.4502       420.6040
         0.4884        83.2200        75.0133        75.0133     15116.4805       420.6040
         0.4891        83.3400        75.0133        75.0133     15176.5098       420.6040
         0.4896        83.4400        75.0133        75.0133     15236.5400       420.6040
         0.4902        83.5400        75.0133        75.0133     15296.5703       420.6040
         0.4908        83.6400        75.0133        75.0133     15356.5996       420.6040
         0.4912        83.7000        75.0133        75.0133     15416.6299       420.6040
   #     0.4915        83.7600        75.0400        75.0400     15476.6602       420.6040
         0.4911        83.6800        75.0133        75.0133     15536.6904       420.5540
         0.4915        83.7600        75.0133        75.0133     15596.7197       420.5540
         0.4920        83.8400        75.0133        75.0133     15656.7500       420.5540
         0.4922        83.8800        75.0133        75.0133     15716.7803       420.5540
         0.4925        83.9200        75.0133        75.0133     15776.8096       420.5540
         0.4928        83.9800        75.0133        75.0133     15836.8398       420.5540
         0.4930        84.0200        75.0133        75.0133     15896.8701       420.5540
         0.4933        84.0600        75.0133        75.0133     15956.9004       420.5540
         0.4934        84.0800        75.0133        75.0133     16016.9297       420.5540
         0.4936        84.1200        75.0133        75.0133     16076.9600       420.5540
         0.4938        84.1400        75.0133        75.0133     16136.9902       420.5540
         0.4940        84.1800        75.0133        75.0133     16197.0195       420.5540
         0.4941        84.2000        75.0133        75.0133     16257.0498       420.5540
         0.4943        84.2400        75.0133        75.0133     16317.0801       420.5540
         0.4946        84.2800        75.0133        75.0133     16377.1104       420.5540
         0.4946        84.2800        75.0133        75.0133     16437.1406       420.5540
         0.4947        84.3000        75.0133        75.0133     16497.1699       420.5540
         0.4948        84.3200        75.0133        75.0133     16557.1992       420.5540
         0.4948        84.3200        75.0133        75.0133     16617.2305       420.5540
         0.4949        84.3400        75.0133        75.0133     16677.2598       420.5540
         0.4952        84.3800        75.0133        75.0133     16737.2891       420.5540
         0.4952        84.3800        75.0133        75.0133     16797.3203       420.5540
         0.4952        84.3800        75.0133        75.0133     16857.3496       420.5540
         0.4953        84.4000        75.0133        75.0133     16917.3809       420.5540
         0.4954        84.4200        75.0133        75.0133     16977.4102       420.5540
         0.4954        84.4200        75.0133        75.0133     17037.4395       420.5540
         0.4955        84.4400        75.0133        75.0133     17097.4707       420.5540
         0.4955        84.4400        75.0133        75.0133     17157.5000       420.5540
         0.4955        84.4400        75.0133        75.0133     17217.5293       420.5540
         0.4955        84.4400        75.0133        75.0133     17277.5605       420.5540
         0.4956        84.4600        75.0133        75.0133     17337.5898       420.5540
         0.4956        84.4600        75.0133        75.0133     17397.6191       420.5540
         0.4957        84.4800        75.0133        75.0133     17457.6504       420.5540
         0.4957        84.4800        75.0133        75.0133     17517.6797       420.5540
         0.4957        84.4800        75.0133        75.0133     17577.7109       420.5540
         0.4957        84.4800        75.0133        75.0133     17637.7402       420.5540
         0.4959        84.5000        75.0133        75.0133     17697.7695       420.5540
         0.4959        84.5000        75.0133        75.0133     17757.8008       420.5540
         0.4959        84.5000        75.0133        75.0133     17817.8301       420.5540
         0.4959        84.5000        75.0133        75.0133     17877.8594       420.5540
         0.4959        84.5000        75.0133        75.0133     17937.8906       420.5540
         0.4959        84.5000        75.0133        75.0133     17997.9199       420.5540
         0.4957        84.4800        75.0133        75.0133     18026.6309       420.5540
         0.4959        84.5000        75.0133        75.0133     18026.7500       420.5540
         0.4959        84.5000        75.0133        75.0133     18026.8691       420.5540
         0.4921        83.8600        74.6867        74.6867     18026.9902       420.4550
         0.4832        82.3400        74.1667        74.1667     18027.1094       420.2860
         0.4749        80.9200        73.5867        73.5867     18027.2305       420.1090
         0.4657        79.3600        72.9400        72.9400     18027.3496       419.9050
         0.4570        77.8800        72.2267        72.2267     18027.4707       419.6990
         0.4492        76.5400        71.5467        71.5467     18027.5898       419.5030
         0.4419        75.3000        70.9333        70.9333     18027.7109       419.3150
         0.4347        74.0800        70.2533        70.2533     18027.8301       419.1280
         0.4286        73.0400        69.6733        69.6733     18027.9492       418.9550
         0.4225        72.0000        69.0867        69.0867     18028.0703       418.7830
         0.4164        70.9600        68.5067        68.5067     18028.1895       418.6120
         0.4105        69.9600        67.9267        67.9267     18028.3105       418.4440
         0.4048        68.9800        67.3400        67.3400     18028.4297       418.2760
         0.3989        67.9800        66.7267        66.7267     18028.5508       418.1040
         0.3931        66.9800        66.1133        66.1133     18028.6699       417.9320
         0.3873        66.0000        65.4933        65.4933     18028.7891       417.7600
         0.3816        65.0200        64.9133        64.9133     18028.9102       417.5880
         0.3758        64.0400        64.3333        64.3333     18029.0293       417.4160
         0.3700        63.0600        63.7200        63.7200     18029.1504       417.2480
         0.3646        62.1400        63.1333        63.1333     18029.2695       417.0810
         0.3590        61.1800        62.5533        62.5533     18029.3906       416.9100
         0.3533        60.2000        61.9067        61.9067     18029.5098       416.7390
         0.3477        59.2600        61.2867        61.2867     18029.6309       416.5680
         0.3425        58.3600        60.7067        60.7067     18029.7500       416.4070
         0.3374        57.5000        60.2200        60.2200     18029.8691       416.2460
         0.3317        56.5200        59.6400        59.6400     18029.9902       416.0750
         0.3258        55.5200        58.9933        58.9933     18030.1094       415.8980
         0.3201        54.5400        58.3467        58.3467     18030.2305       415.7190
         0.3148        53.6400        57.7333        57.7333     18030.3496       415.5510
         0.3093        52.7000        57.1800        57.1800     18030.4707       415.3830
         0.3037        51.7600        56.5667        56.5667     18030.5898       415.2120
         0.2983        50.8400        55.9533        55.9533     18030.7109       415.0410
         0.2928        49.9000        55.3333        55.3333     18030.8301       414.8700
         0.2877        49.0200        54.7867        54.7867     18030.9492       414.7090
         0.2826        48.1600        54.2333        54.2333     18031.0703       414.5490
         0.2773        47.2600        53.6200        53.6200     18031.1895       414.3800
         0.2717        46.3000        52.9400        52.9400     18031.3105       414.2050
         0.2661        45.3400        52.3267        52.3267     18031.4297       414.0300
         0.2611        44.5000        51.7133        51.7133     18031.5508       413.8730
         0.2563        43.6800        51.2267        51.2267     18031.6699       413.7170
         0.2512        42.8000        50.6467        50.6467     18031.7891       413.5520
         0.2458        41.8800        50.0267        50.0267     18031.9102       413.3810
    #    0.2540        43.2800        49.7400        49.7400     18032.4199       413.3170
    #    0.2614        44.5400        49.7400        49.7400     18032.9297       413.3490
    #    0.2701        46.0200        49.8667        49.8667     18033.4395       413.4110
    #    0.2756        46.9600        49.9667        49.9667     18033.9492       413.4480
    #    0.2792        47.5800        49.9933        49.9933     18034.4609       413.4610
         0.2823        48.1000        50.0267        50.0267     18034.9707       413.4700
         0.2846        48.5000        50.0267        50.0267     18035.4805       413.4710
         0.2866        48.8400        50.0267        50.0267     18035.9902       413.4720
         0.2884        49.1400        50.0267        50.0267     18036.5000       413.4720
         0.2902        49.4600        50.0267        50.0267     18037.0098       413.4720
         0.2918        49.7200        50.0267        50.0267     18037.5195       413.4720
         0.2932        49.9600        50.0267        50.0267     18038.0293       413.4720
         0.2945        50.1800        50.0267        50.0267     18038.5391       413.4720
         0.2958        50.4000        50.0267        50.0267     18039.0508       413.4720
         0.2970        50.6200        50.0267        50.0267     18039.5605       413.4720
         0.2981        50.8000        50.0267        50.0267     18040.0703       413.4720
         0.2992        50.9800        50.0267        50.0267     18040.5801       413.4720
         0.3002        51.1600        50.0267        50.0267     18041.0898       413.4720
         0.3012        51.3200        50.0267        50.0267     18041.5996       413.4720
         0.3020        51.4600        50.0267        50.0267     18042.1094       413.4720
         0.3029        51.6200        50.0267        50.0267     18042.6191       413.4720
         0.3037        51.7600        50.0267        50.0267     18043.1309       413.4720
         0.3046        51.9000        50.0267        50.0267     18043.6406       413.4720
         0.3053        52.0200        50.0267        50.0267     18044.1504       413.4720
         0.3061        52.1600        50.0267        50.0267     18044.6602       413.4720
   #     0.3069        52.3000        49.9933        49.9933     18045.1699       413.4760
   #     0.3078        52.4600        49.9933        49.9933     18045.6797       413.4810
   #     0.3087        52.6000        49.9933        49.9933     18046.1895       413.4850
   #     0.3101        52.8400        49.9933        49.9933     18046.6992       413.4960
         0.3108        52.9600        50.0267        50.0267     18047.2109       413.5020
         0.3116        53.1000        50.0267        50.0267     18047.7207       413.5070
         0.3120        53.1600        50.0267        50.0267     18048.2305       413.5070
         0.3125        53.2600        50.0267        50.0267     18048.7402       413.5070
         0.3131        53.3600        50.0267        50.0267     18049.2500       413.5080
         0.3136        53.4400        50.0267        50.0267     18049.7598       413.5080
         0.3141        53.5200        50.0267        50.0267     18050.2695       413.5080
         0.3145        53.6000        50.0267        50.0267     18050.7793       413.5080
         0.3150        53.6800        50.0267        50.0267     18051.2891       413.5080
         0.3154        53.7400        50.0267        50.0267     18051.8008       413.5080
         0.3158        53.8200        50.0267        50.0267     18052.3105       413.5080
         0.3162        53.8800        50.0267        50.0267     18052.8203       413.5080
         0.3166        53.9600        50.0267        50.0267     18053.3301       413.5080
         0.3171        54.0400        50.0267        50.0267     18053.8398       413.5080
         0.3175        54.1000        50.0267        50.0267     18054.3496       413.5080
         0.3178        54.1600        50.0267        50.0267     18054.8594       413.5080
         0.3182        54.2200        50.0267        50.0267     18055.3691       413.5080
         0.3186        54.3000        50.0267        50.0267     18055.8809       413.5080
         0.3190        54.3600        50.0267        50.0267     18056.3906       413.5080
         0.3193        54.4200        50.0267        50.0267     18056.9004       413.5080
         0.3197        54.4800        50.0267        50.0267     18057.4102       413.5080
         0.3201        54.5400        50.0267        50.0267     18057.9199       413.5080
         0.3204        54.6000        50.0267        50.0267     18058.4297       413.5080
         0.3208        54.6600        50.0267        50.0267     18058.9395       413.5080
         0.3210        54.7000        50.0267        50.0267     18059.4492       413.5080
         0.3212        54.7400        50.0267        50.0267     18059.9609       413.5080
         0.3216        54.8000        50.0267        50.0267     18060.4707       413.5080
         0.3219        54.8600        50.0267        50.0267     18060.9805       413.5080
         0.3223        54.9200        50.0267        50.0267     18061.4902       413.5080
         0.3402        57.9800        50.0267        50.0267     18121.5195       413.5080
         0.3490        59.4800        50.0267        50.0267     18181.5508       413.5380
         0.3539        60.3000        50.0267        50.0267     18241.5801       413.5380
         0.3573        60.8800        50.0267        50.0267     18301.6094       413.5380
         0.3608        61.4800        50.0267        50.0267     18361.6406       413.5630
         0.3628        61.8200        50.0267        50.0267     18421.6699       413.5630
         0.3645        62.1200        50.0267        50.0267     18481.6992       413.5630
         0.3662        62.4000        50.0267        50.0267     18541.7305       413.5630
         0.3675        62.6200        50.0267        50.0267     18601.7598       413.5630
         0.3686        62.8200        50.0267        50.0267     18661.7891       413.5630
         0.3696        62.9800        50.0267        50.0267     18721.8203       413.5630
         0.3705        63.1400        50.0267        50.0267     18781.8496       413.5630
         0.3715        63.3000        50.0267        50.0267     18841.8809       413.5630
         0.3723        63.4400        50.0267        50.0267     18901.9102       413.5630
         0.3743        63.7800        50.0267        50.0267     18961.9395       413.5960
         0.3747        63.8600        50.0267        50.0267     19021.9707       413.5960
         0.3753        63.9600        50.0267        50.0267     19082.0000       413.5960
         0.3759        64.0600        50.0267        50.0267     19142.0293       413.5960
         0.3764        64.1400        50.0267        50.0267     19202.0605       413.5960
         0.3769        64.2200        50.0267        50.0267     19262.0898       413.5960
         0.3774        64.3200        50.0267        50.0267     19322.1191       413.5960
         0.3778        64.3800        50.0267        50.0267     19382.1504       413.5960
         0.3783        64.4600        50.0267        50.0267     19442.1797       413.5960
         0.3786        64.5200        50.0267        50.0267     19502.2109       413.5960
         0.3790        64.5800        50.0267        50.0267     19562.2402       413.5960
         0.3793        64.6400        50.0267        50.0267     19622.2695       413.5960
         0.3798        64.7200        50.0267        50.0267     19682.3008       413.5960
         0.3800        64.7600        50.0267        50.0267     19742.3301       413.5960
         0.3803        64.8000        50.0267        50.0267     19802.3594       413.5960
         0.3807        64.8800        50.0267        50.0267     19862.3906       413.5960
         0.3810        64.9200        50.0267        50.0267     19922.4199       413.5960
         0.3811        64.9400        50.0267        50.0267     19982.4492       413.5960
         0.3814        65.0000        50.0267        50.0267     20042.4805       413.5960
         0.3817        65.0400        50.0267        50.0267     20102.5098       413.5960
         0.3820        65.1000        50.0267        50.0267     20162.5391       413.5960
         0.3821        65.1200        50.0267        50.0267     20222.5703       413.5960
         0.3824        65.1600        50.0267        50.0267     20282.5996       413.5960
         0.3825        65.1800        50.0267        50.0267     20342.6309       413.5960
         0.3827        65.2200        50.0267        50.0267     20402.6602       413.5960
         0.3830        65.2600        50.0267        50.0267     20462.6895       413.5960
         0.3832        65.3000        50.0267        50.0267     20522.7207       413.5960
         0.3834        65.3400        50.0267        50.0267     20582.7500       413.5960
         0.3835        65.3600        50.0267        50.0267     20642.7793       413.5960
         0.3838        65.4000        50.0267        50.0267     20702.8105       413.5960
         0.3838        65.4000        50.0267        50.0267     20762.8398       413.5960
         0.3840        65.4400        50.0267        50.0267     20822.8691       413.5960
         0.3841        65.4600        50.0267        50.0267     20882.9004       413.5960
         0.3844        65.5000        50.0267        50.0267     20942.9297       413.5960
         0.3845        65.5200        50.0267        50.0267     21002.9609       413.5960
         0.3847        65.5600        50.0267        50.0267     21062.9902       413.5960
         0.3850        65.6000        50.0267        50.0267     21123.0195       413.5960
         0.3851        65.6200        50.0267        50.0267     21183.0508       413.5960
         0.3851        65.6200        50.0267        50.0267     21243.0801       413.5960
         0.3852        65.6400        50.0267        50.0267     21303.1094       413.5960
         0.3853        65.6600        50.0267        50.0267     21363.1406       413.5960
         0.3855        65.7000        50.0267        50.0267     21423.1699       413.5960
         0.3857        65.7200        50.0267        50.0267     21483.1992       413.5960
         0.3858        65.7400        50.0267        50.0267     21543.2305       413.5960
         0.3859        65.7600        50.0267        50.0267     21603.2598       413.5960
         0.3860        65.7800        50.0267        50.0267     21631.9395       413.5960
         0.3859        65.7600        50.0267        50.0267     21632.0605       413.5940
         0.3860        65.7800        50.0267        50.0267     21632.1797       413.5750
    #    0.3846        65.5400        49.9933        49.9933     21632.3008       413.5440
         0.3750        63.9000        49.3467        49.3467     21632.4199       413.3580
         0.3620        61.6800        48.6667        48.6667     21632.5391       413.1390
         0.3497        59.6000        47.9267        47.9267     21632.6602       412.9190
         0.3392        57.8000        47.2800        47.2800     21632.7793       412.7110
         0.3287        56.0200        46.5667        46.5667     21632.9004       412.5010
         0.3198        54.5000        45.8533        45.8533     21633.0195       412.3140
         0.3120        53.1600        45.2067        45.2067     21633.1406       412.1330
         0.3039        51.7800        44.6600        44.6600     21633.2598       411.9580
         0.2968        50.5800        44.1400        44.1400     21633.3809       411.7970
         0.2895        49.3400        43.5867        43.5867     21633.5000       411.6360
         0.2820        48.0600        42.9733        42.9733     21633.6191       411.4600
         0.2738        46.6600        42.3600        42.3600     21633.7402       411.2820
         0.2661        45.3400        41.7133        41.7133     21633.8594       411.1050
         0.2587        44.0800        41.1267        41.1267     21633.9805       410.9330
         0.2510        42.7800        40.6133        40.6133     21634.0996       410.7610
         0.2432        41.4400        40.0267        40.0267     21634.2207       410.5820
         0.2352        40.0800        39.4467        39.4467     21634.3398       410.4030
         0.2273        38.7400        38.8333        38.8333     21634.4609       410.2220
         0.2194        37.3800        38.1867        38.1867     21634.5801       410.0380
         0.2111        35.9800        37.6000        37.6000     21634.6992       409.8550
         0.2034        34.6600        36.9867        36.9867     21634.8203       409.6770
         0.1956        33.3400        36.4067        36.4067     21634.9395       409.5010
         0.1878        32.0000        35.8200        35.8200     21635.0605       409.3250
         0.1802        30.7000        35.2067        35.2067     21635.1797       409.1490
         0.1726        29.4200        34.6267        34.6267     21635.3008       408.9730
         0.1650        28.1200        34.0400        34.0400     21635.4199       408.7970
         0.1573        26.8000        33.4267        33.4267     21635.5391       408.6210
         0.1494        25.4600        32.8800        32.8800     21635.6602       408.4450
         0.1417        24.1400        32.2600        32.2600     21635.7793       408.2690
         0.1339        22.8200        31.6800        31.6800     21635.9004       408.0940
         0.1258        21.4400        31.1000        31.1000     21636.0195       407.9150
         0.1180        20.1000        30.4800        30.4800     21636.1406       407.7340
         0.1099        18.7200        29.9667        29.9667     21636.2598       407.5540
         0.1015        17.3000        29.3800        29.3800     21636.3809       407.3750
         0.0932        15.8800        28.8000        28.8000     21636.5000       407.1950
         0.0845        14.4000        28.1533        28.1533     21636.6191       407.0060
         0.0757        12.9000        27.5400        27.5400     21636.7402       406.8140
         0.0667        11.3600        26.9533        26.9533     21636.8594       406.6250
         0.0581         9.9000        26.3400        26.3400     21636.9805       406.4410
         0.0493         8.4000        25.6933        25.6933     21637.0996       406.2570
    #
         0.0411         7.0000        24.9800        25.1133     21637.2207       406.0790
    #
    #    0.0486         8.2800        24.6600        24.6600     21637.7305       405.9630
    #    0.0597        10.1800        24.6600        24.6600     21638.2402       405.9990
    #    0.0721        12.2800        24.8200        24.8200     21638.7500       406.0690
    #    0.0800        13.6400        24.9467        24.9467     21639.2598       406.1100
         0.0846        14.4200        24.9800        24.9800     21639.7695       406.1210
         0.0881        15.0200        24.9800        24.9800     21640.2793       406.1220
         0.0911        15.5200        24.9800        24.9800     21640.7891       406.1220
         0.0939        16.0000        24.9800        24.9800     21641.3008       406.1220
         0.0964        16.4200        24.9800        24.9800     21641.8105       406.1230
         0.0987        16.8200        24.9800        24.9800     21642.3203       406.1230
         0.1007        17.1600        24.9800        24.9800     21642.8301       406.1230
         0.1027        17.5000        24.9800        24.9800     21643.3398       406.1230
         0.1046        17.8200        24.9800        24.9800     21643.8496       406.1230
         0.1062        18.1000        24.9800        24.9800     21644.3594       406.1230
   #     0.1077        18.3600        24.9467        24.9467     21644.8691       406.1230
   #     0.1101        18.7600        24.9467        24.9467     21645.3809       406.1320
   #     0.1121        19.1000        24.9467        24.9467     21645.8906       406.1410
         0.1135        19.3400        24.9800        24.9800     21646.4004       406.1430
         0.1145        19.5200        24.9800        24.9800     21646.9102       406.1430
         0.1157        19.7200        24.9800        24.9800     21647.4199       406.1430
         0.1169        19.9200        24.9800        24.9800     21647.9297       406.1430
         0.1180        20.1000        24.9800        24.9800     21648.4395       406.1430
         0.1190        20.2800        24.9800        24.9800     21648.9492       406.1430
         0.1199        20.4400        24.9800        24.9800     21649.4609       406.1430
         0.1209        20.6000        24.9800        24.9800     21649.9707       406.1430
         0.1218        20.7600        24.9800        24.9800     21650.4805       406.1430
         0.1228        20.9200        24.9800        24.9800     21650.9902       406.1430
         0.1235        21.0400        24.9800        24.9800     21651.5000       406.1430
         0.1243        21.1800        24.9800        24.9800     21652.0098       406.1430
         0.1250        21.3000        24.9800        24.9800     21652.5195       406.1430
         0.1258        21.4400        24.9800        24.9800     21653.0293       406.1430
         0.1265        21.5600        24.9800        24.9800     21653.5391       406.1430
         0.1273        21.7000        24.9800        24.9800     21654.0508       406.1430
         0.1279        21.8000        24.9800        24.9800     21654.5605       406.1430
         0.1285        21.9000        24.9800        24.9800     21655.0703       406.1430
         0.1293        22.0400        24.9800        24.9800     21655.5801       406.1430
         0.1298        22.1200        24.9800        24.9800     21656.0898       406.1430
         0.1305        22.2400        24.9800        24.9800     21656.5996       406.1430
         0.1311        22.3400        24.9800        24.9800     21657.1094       406.1430
         0.1318        22.4600        24.9800        24.9800     21657.6191       406.1430
         0.1323        22.5400        24.9800        24.9800     21658.1309       406.1430
         0.1327        22.6200        24.9800        24.9800     21658.6406       406.1430
         0.1333        22.7200        24.9800        24.9800     21659.1504       406.1430
         0.1339        22.8200        24.9800        24.9800     21659.6602       406.1430
         0.1344        22.9000        24.9800        24.9800     21660.1699       406.1430
         0.1349        22.9800        24.9800        24.9800     21660.6797       406.1430
         0.1353        23.0600        24.9800        24.9800     21661.1895       406.1430
         0.1359        23.1600        24.9800        24.9800     21661.6992       406.1430
         0.1363        23.2200        24.9800        24.9800     21662.2109       406.1430
         0.1368        23.3200        24.9800        24.9800     21662.7207       406.1430
         0.1372        23.3800        24.9800        24.9800     21663.2305       406.1430
         0.1378        23.4800        24.9800        24.9800     21663.7402       406.1430
         0.1381        23.5400        24.9800        24.9800     21664.2500       406.1430
         0.1386        23.6200        24.9800        24.9800     21664.7598       406.1430
         0.1391        23.7000        24.9800        24.9800     21665.2695       406.1430
         0.1394        23.7600        24.9800        24.9800     21665.7793       406.1430
         0.1398        23.8200        24.9800        24.9800     21666.2891       406.1430
         0.1402        23.9000        24.9800        24.9800     21666.8008       406.1430
         0.1654        28.1800        24.9800        24.9800     21726.8301       406.1730
         0.1755        29.9000        24.9800        24.9800     21786.8594       406.1730
         0.1819        31.0000        24.9800        24.9800     21846.8906       406.1730
         0.1865        31.7800        24.9800        24.9800     21906.9199       406.1730
         0.1900        32.3800        24.9800        24.9800     21966.9492       406.1730
         0.1928        32.8600        24.9800        24.9800     22026.9805       406.1730
         0.1969        33.5600        24.9800        24.9800     22087.0098       406.2010
         0.1988        33.8800        24.9800        24.9800     22147.0391       406.2010
         0.2006        34.1800        24.9800        24.9800     22207.0703       406.2010
         0.2022        34.4600        24.9800        24.9800     22267.0996       406.2010
         0.2037        34.7200        24.9800        24.9800     22327.1309       406.2010
         0.2050        34.9400        24.9800        24.9800     22387.1602       406.2010
         0.2062        35.1400        24.9800        24.9800     22447.1895       406.2010
         0.2074        35.3400        24.9800        24.9800     22507.2207       406.2010
         0.2084        35.5200        24.9800        24.9800     22567.2500       406.2010
         0.2094        35.6800        24.9800        24.9800     22627.2793       406.2010
         0.2103        35.8400        24.9800        24.9800     22687.3105       406.2010
         0.2111        35.9800        24.9800        24.9800     22747.3398       406.2010
         0.2120        36.1200        24.9800        24.9800     22807.3691       406.2010
         0.2127        36.2400        24.9800        24.9800     22867.4004       406.2010
         0.2134        36.3600        24.9800        24.9800     22927.4297       406.2010
         0.2142        36.5000        24.9800        24.9800     22987.4609       406.2010
         0.2148        36.6000        24.9800        24.9800     23047.4902       406.2020
         0.2154        36.7000        24.9800        24.9800     23107.5195       406.2020
         0.2158        36.7800        24.9800        24.9800     23167.5508       406.2020
         0.2164        36.8800        24.9800        24.9800     23227.5801       406.2020
         0.2170        36.9800        24.9800        24.9800     23287.6094       406.2020
         0.2176        37.0800        24.9800        24.9800     23347.6406       406.2020
         0.2181        37.1600        24.9800        24.9800     23407.6699       406.2020
         0.2186        37.2600        24.9800        24.9800     23467.6992       406.2020
         0.2190        37.3200        24.9800        24.9800     23527.7305       406.2020
         0.2195        37.4000        24.9800        24.9800     23587.7598       406.2020
         0.2198        37.4600        24.9800        24.9800     23647.7891       406.2020
         0.2203        37.5400        24.9800        24.9800     23707.8203       406.2020
         0.2208        37.6200        24.9800        24.9800     23767.8496       406.2020
         0.2211        37.6800        24.9800        24.9800     23827.8809       406.2020
         0.2216        37.7600        24.9800        24.9800     23887.9102       406.2020
         0.2219        37.8200        24.9800        24.9800     23947.9395       406.2020
         0.2222        37.8600        24.9800        24.9800     24007.9707       406.2020
         0.2225        37.9200        24.9800        24.9800     24068.0000       406.2020
         0.2229        37.9800        24.9800        24.9800     24128.0293       406.2020
         0.2232        38.0400        24.9800        24.9800     24188.0605       406.2020
         0.2236        38.1000        24.9800        24.9800     24248.0898       406.2020
         0.2238        38.1400        24.9800        24.9800     24308.1191       406.2020
         0.2242        38.2000        24.9800        24.9800     24368.1504       406.2020
         0.2244        38.2400        24.9800        24.9800     24428.1797       406.2020
         0.2246        38.2800        24.9800        24.9800     24488.2109       406.2020
         0.2250        38.3400        24.9800        24.9800     24548.2402       406.2020
         0.2253        38.4000        24.9800        24.9800     24608.2695       406.2020
         0.2255        38.4200        24.9800        24.9800     24668.3008       406.2020
         0.2258        38.4800        24.9800        24.9800     24728.3301       406.2020
         0.2260        38.5200        24.9800        24.9800     24788.3594       406.2020
         0.2263        38.5600        24.9800        24.9800     24848.3906       406.2020
         0.2265        38.6000        24.9800        24.9800     24908.4199       406.2020
         0.2267        38.6400        24.9800        24.9800     24968.4492       406.2020
         0.2270        38.6800        24.9800        24.9800     25028.4805       406.2020
         0.2272        38.7200        24.9800        24.9800     25088.5098       406.2020
         0.2275        38.7600        24.9800        24.9800     25148.5391       406.2020
         0.2277        38.8000        24.9800        24.9800     25208.5703       406.2020
         0.2278        38.8200        24.9800        24.9800     25237.2793       406.2020
         0.2278        38.8200        24.9800        24.9800     25237.4004       406.2020
    #    0.2278        38.8200        24.9467        24.9467     25237.5195       406.1720
         0.2229        37.9800        24.7533        24.7533     25237.6406       406.1120
         0.2149        36.6200        24.4333        24.4333     25237.7598       405.9890
         0.1963        33.4600        23.6533        23.6533     25237.8809       405.7680
         0.1794        30.5800        22.9733        22.9733     25238.0000       405.5400
         0.1638        27.9200        22.2667        22.2667     25238.1191       405.3280
         0.1493        25.4400        21.5867        21.5867     25238.2402       405.1180
         0.1356        23.1000        20.9667        20.9667     25238.3594       404.9150
         0.1232        21.0000        20.3867        20.3867     25238.4805       404.7300
         0.1113        18.9600        19.8067        19.8067     25238.5996       404.5450
         0.0991        16.8800        19.2200        19.2200     25238.7207       404.3590
         0.0871        14.8400        18.6067        18.6067     25238.8398       404.1710
         0.0750        12.7800        17.9933        17.9933     25238.9609       403.9850
         0.0629        10.7200        17.4733        17.4733     25239.0801       403.8000
         0.0508         8.6600        16.9267        16.9267     25239.1992       403.6160
         0.0381         6.5000        16.2800        16.2800     25239.3203       403.4200
         0.0248         4.2200        15.6267        15.6267     25239.4395       403.2210
         0.0119         2.0200        15.0133        15.0133     25239.5605       403.0260
        -0.0002        -0.0400        14.4667        14.4667     25239.6797       402.8370
        -0.0123        -2.1000        13.8800        13.8800     25239.8008       402.6490
        -0.0246        -4.2000        13.2667        13.2667     25239.9199       402.4570
        -0.0365        -6.2200        12.6867        12.6867     25240.0391       402.2650
        -0.0485        -8.2600        12.1333        12.1333     25240.1602       402.0720
        -0.0603       -10.2800        11.5867        11.5867     25240.2793       401.8800
        -0.0711       -12.1200        11.1000        11.1000     25240.4004       401.6900
        -0.0832       -14.1800        10.5467        10.5467     25240.5195       401.4780
        -0.0971       -16.5400         9.9667         9.9667     25240.6406       401.2640
        -0.1111       -18.9400         9.3200         9.3200     25240.7598       401.0480
        -0.1252       -21.3400         8.6733         8.6733     25240.8809       400.8290
        -0.1400       -23.8600         8.0267         8.0267     25241.0000       400.6090
        -0.1546       -26.3400         7.4400         7.4400     25241.1191       400.4020
        -0.1687       -28.7400         6.8267         6.8267     25241.2402       400.1970
        -0.1824       -31.0800         6.2467         6.2467     25241.3594       399.9930
        -0.1962       -33.4400         5.6000         5.6000     25241.4805       399.7890
        -0.2122       -36.1600         4.9533         4.9533     25241.5996       399.5850
        -0.2276       -38.7800         4.3333         4.3333     25241.7207       399.3900
        -0.2429       -41.4000         3.7200         3.7200     25241.8398       399.1970
        -0.2584       -44.0400         3.0733         3.0733     25241.9609       399.0070
        -0.2735       -46.6000         2.4600         2.4600     25242.0801       398.8180
        -0.2887       -49.2000         1.8467         1.8467     25242.1992       398.6310
        -0.3041       -51.8200         1.2933         1.2933     25242.3203       398.4520
        -0.3186       -54.3000         0.6800         0.6800     25242.4395       398.2750
        -0.3335       -56.8400         0.0667         0.0667     25242.5605       398.0970
  #     -0.3242       -55.2400        -0.3267        -0.3267     25243.0703       397.9920
  #     -0.3056       -52.0800        -0.2933        -0.2933     25243.5801       398.0420
  #     -0.2861       -48.7600        -0.1000        -0.1000     25244.0898       398.1150
  #     -0.2745       -46.7800         0.0333         0.0333     25244.5996       398.1540
        -0.2674       -45.5600         0.0667         0.0667     25245.1094       398.1650
  #     -0.2615       -44.5600         0.1000         0.1000     25245.6191       398.1710
  #     -0.2571       -43.8200         0.1000         0.1000     25246.1309       398.1710
  #     -0.2530       -43.1200         0.1000         0.1000     25246.6406       398.1710
  #     -0.2493       -42.4800         0.1000         0.1000     25247.1504       398.1710
  #     -0.2459       -41.9000         0.1000         0.1000     25247.6602       398.1710
  #     -0.2427       -41.3600         0.1000         0.1000     25248.1699       398.1700
  #     -0.2398       -40.8600         0.1000         0.1000     25248.6797       398.1700
  #     -0.2371       -40.4000         0.1000         0.1000     25249.1895       398.1700
  #     -0.2347       -40.0000         0.1000         0.1000     25249.6992       398.1680
  #     -0.2323       -39.5800         0.1000         0.1000     25250.2109       398.1640
  #     -0.2300       -39.2000         0.1000         0.1000     25250.7207       398.1590
  #     -0.2279       -38.8400         0.1000         0.1000     25251.2305       398.1520
  #     -0.2260       -38.5200         0.1000         0.1000     25251.7402       398.1450
  #     -0.2246       -38.2800         0.1000         0.1000     25252.2500       398.1410
  #     -0.2240       -38.1800         0.1000         0.1000     25252.7598       398.1330
        -0.2229       -37.9800         0.0667         0.0667     25253.2695       398.1270
        -0.2211       -37.6800         0.0667         0.0667     25253.7793       398.1270
        -0.2195       -37.4000         0.0667         0.0667     25254.2891       398.1260
        -0.2179       -37.1400         0.0667         0.0667     25254.8008       398.1260
        -0.2165       -36.9000         0.0667         0.0667     25255.3105       398.1260
        -0.2150       -36.6400         0.0667         0.0667     25255.8203       398.1260
        -0.2137       -36.4200         0.0667         0.0667     25256.3301       398.1260
        -0.2124       -36.2000         0.0667         0.0667     25256.8398       398.1260
        -0.2111       -35.9800         0.0667         0.0667     25257.3496       398.1250
        -0.2100       -35.7800         0.0667         0.0667     25257.8594       398.1250
        -0.2088       -35.5800         0.0667         0.0667     25258.3691       398.1250
        -0.2077       -35.4000         0.0667         0.0667     25258.8809       398.1250
        -0.2067       -35.2200         0.0667         0.0667     25259.3906       398.1250
        -0.2055       -35.0200         0.0667         0.0667     25259.9004       398.1250
        -0.2044       -34.8400         0.0667         0.0667     25260.4102       398.1250
        -0.2036       -34.7000         0.0667         0.0667     25260.9199       398.1250
        -0.2026       -34.5200         0.0667         0.0667     25261.4297       398.1250
        -0.2016       -34.3600         0.0667         0.0667     25261.9395       398.1250
        -0.2007       -34.2000         0.0667         0.0667     25262.4492       398.1250
        -0.1999       -34.0600         0.0667         0.0667     25262.9609       398.1250
        -0.1990       -33.9200         0.0667         0.0667     25263.4707       398.1250
        -0.1981       -33.7600         0.0667         0.0667     25263.9805       398.1250
        -0.1973       -33.6200         0.0667         0.0667     25264.4902       398.1250
        -0.1965       -33.4800         0.0667         0.0667     25265.0000       398.1250
        -0.1956       -33.3400         0.0667         0.0667     25265.5098       398.1250
        -0.1949       -33.2200         0.0667         0.0667     25266.0195       398.1250
        -0.1942       -33.1000         0.0667         0.0667     25266.5293       398.1250
        -0.1935       -32.9800         0.0667         0.0667     25267.0391       398.1250
        -0.1928       -32.8600         0.0667         0.0667     25267.5508       398.1250
        -0.1920       -32.7200         0.0667         0.0667     25268.0605       398.1250
        -0.1914       -32.6200         0.0667         0.0667     25268.5703       398.1250
        -0.1907       -32.5000         0.0667         0.0667     25269.0801       398.1250
        -0.1901       -32.4000         0.0667         0.0667     25269.5898       398.1250
        -0.1895       -32.3000         0.0667         0.0667     25270.0996       398.1250
        -0.1888       -32.1800         0.0667         0.0667     25270.6094       398.1250
        -0.1883       -32.0800         0.0667         0.0667     25271.1191       398.1250
        -0.1875       -31.9600         0.0667         0.0667     25271.6309       398.1250
        -0.1870       -31.8600         0.0667         0.0667     25272.1406       398.1250
        -0.1509       -25.7200         0.0667         0.0667     25332.1699       398.1250
        -0.1356       -23.1000         0.0667         0.0667     25392.1992       398.1250
        -0.1258       -21.4400         0.0667         0.0667     25452.2305       398.1250
        -0.1189       -20.2600         0.0667         0.0667     25512.2598       398.1250
        -0.1135       -19.3400         0.0667         0.0667     25572.2891       398.1250
        -0.1090       -18.5800         0.0667         0.0667     25632.3203       398.1250
        -0.1053       -17.9400         0.0667         0.0667     25692.3496       398.1250
        -0.1020       -17.3800         0.0667         0.0667     25752.3809       398.1250
        -0.0992       -16.9000         0.0667         0.0667     25812.4102       398.1250
        -0.0966       -16.4600         0.0667         0.0667     25872.4395       398.1250
        -0.0944       -16.0800         0.0667         0.0667     25932.4707       398.1250
        -0.0922       -15.7200         0.0667         0.0667     25992.5000       398.1250
        -0.0904       -15.4000         0.0667         0.0667     26052.5293       398.1250
        -0.0886       -15.1000         0.0667         0.0667     26112.5605       398.1250
        -0.0870       -14.8200         0.0667         0.0667     26172.5898       398.1250
        -0.0854       -14.5600         0.0667         0.0667     26232.6191       398.1250
        -0.0840       -14.3200         0.0667         0.0667     26292.6504       398.1250
        -0.0827       -14.1000         0.0667         0.0667     26352.6797       398.1250
        -0.0815       -13.8800         0.0667         0.0667     26412.7109       398.1250
        -0.0802       -13.6600         0.0667         0.0667     26472.7402       398.1250
        -0.0791       -13.4800         0.0667         0.0667     26532.7695       398.1250
        -0.0779       -13.2800         0.0667         0.0667     26592.8008       398.1250
        -0.0770       -13.1200         0.0667         0.0667     26652.8301       398.1250
        -0.0759       -12.9400         0.0667         0.0667     26712.8594       398.1250
        -0.0750       -12.7800         0.0667         0.0667     26772.8906       398.1250
        -0.0742       -12.6400         0.0667         0.0667     26832.9199       398.1250
        -0.0734       -12.5000         0.0667         0.0667     26892.9492       398.1250
        -0.0725       -12.3600         0.0667         0.0667     26952.9805       398.1250
        -0.0716       -12.2000         0.0667         0.0667     27013.0098       398.1250
        -0.0709       -12.0800         0.0667         0.0667     27073.0391       398.1250
        -0.0702       -11.9600         0.0667         0.0667     27133.0703       398.1250
        -0.0695       -11.8400         0.0667         0.0667     27193.0996       398.1250
        -0.0687       -11.7000         0.0667         0.0667     27253.1309       398.1250
        -0.0681       -11.6000         0.0667         0.0667     27313.1602       398.1250
        -0.0674       -11.4800         0.0667         0.0667     27373.1895       398.1250
        -0.0668       -11.3800         0.0667         0.0667     27433.2207       398.1250
        -0.0662       -11.2800         0.0667         0.0667     27493.2500       398.1250
        -0.0656       -11.1800         0.0667         0.0667     27553.2793       398.1250
        -0.0650       -11.0800         0.0667         0.0667     27613.3105       398.1250
        -0.0644       -10.9800         0.0667         0.0667     27673.3398       398.1250
        -0.0638       -10.8800         0.0667         0.0667     27733.3691       398.1250
        -0.0633       -10.7800         0.0667         0.0667     27793.4004       398.1250
        -0.0628       -10.7000         0.0667         0.0667     27853.4297       398.1250
        -0.0622       -10.6000         0.0667         0.0667     27913.4609       398.1250
        -0.0617       -10.5200         0.0667         0.0667     27973.4902       398.1250
        -0.0613       -10.4400         0.0667         0.0667     28033.5195       398.1250
        -0.0608       -10.3600         0.0667         0.0667     28093.5508       398.1250
        -0.0603       -10.2800         0.0667         0.0667     28153.5801       398.1250
        -0.0599       -10.2000         0.0667         0.0667     28213.6094       398.1250
        -0.0594       -10.1200         0.0667         0.0667     28273.6406       398.1250
        -0.0590       -10.0600         0.0667         0.0667     28333.6699       398.1250
        -0.0586        -9.9800         0.0667         0.0667     28393.6992       398.1250
        -0.0582        -9.9200         0.0667         0.0667     28453.7305       398.1250
        -0.0577        -9.8400         0.0667         0.0667     28513.7598       398.1250
        -0.0573        -9.7600         0.0667         0.0667     28573.7891       398.1250
        -0.0569        -9.7000         0.0667         0.0667     28633.8203       398.1250
        -0.0566        -9.6400         0.0667         0.0667     28693.8496       398.1250
        -0.0561        -9.5600         0.0667         0.0667     28753.8809       398.1250
        -0.0559        -9.5200         0.0667         0.0667     28813.9102       398.1250
        -0.0556        -9.4800         0.0667         0.0667     28842.5898       398.1250
        -0.0556        -9.4800         0.0667         0.0667     28842.7109       398.1250
        -0.0556        -9.4800         0.0667         0.0667     28842.8301       398.1190
        -0.0739       -12.6000        -0.3533        -0.3533     28842.9492       397.9790
        -0.0930       -15.8400        -0.8067        -0.8067     28843.0703       397.8420
        -0.1145       -19.5200        -1.3933        -1.3933     28843.1895       397.6650
        -0.1415       -24.1200        -2.0067        -2.0067     28843.3105       397.4590
        -0.1688       -28.7600        -2.6867        -2.6867     28843.4297       397.2510
        -0.1934       -32.9600        -3.3000        -3.3000     28843.5508       397.0560
        -0.2179       -37.1400        -3.9467        -3.9467     28843.6699       396.8610
        -0.2422       -41.2800        -4.5333        -4.5333     28843.7891       396.6690
        -0.2658       -45.3000        -5.1800        -5.1800     28843.9102       396.4810
        -0.2897       -49.3600        -5.8267        -5.8267     28844.0293       396.2930
        -0.3118       -53.1400        -6.4067        -6.4067     28844.1504       396.1160
        -0.3341       -56.9400        -7.0200        -7.0200     28844.2695       395.9410
        -0.3568       -60.8000        -7.6067        -7.6067     28844.3906       395.7660
        -0.3789       -64.5600        -8.2200        -8.2200     28844.5098       395.5940
        -0.4014       -68.4000        -8.8000        -8.8000     28844.6309       395.4220
        -0.4243       -72.3000        -9.4200        -9.4200     28844.7500       395.2500
        -0.4473       -76.2200       -10.0333       -10.0333     28844.8691       395.0780
        -0.4703       -80.1400       -10.5800       -10.5800     28844.9902       394.9070
        -0.4940       -84.1800       -11.1933       -11.1933     28845.1094       394.7340
        -0.5176       -88.2000       -11.8133       -11.8133     28845.2305       394.5630
        -0.5413       -92.2400       -12.4267       -12.4267     28845.3496       394.3910
  # 
        -0.5450       -91.1200       -12.5533       -12.8467     28845.8594       394.2820
  #
  #     -0.5172       -88.1400       -12.8467       -12.8467     28846.3691       394.3110
  #     -0.4954       -84.4200       -12.6867       -12.6867     28846.8809       394.3680
  #     -0.4825       -82.2200       -12.5867       -12.5867     28847.3906       394.3980
        -0.4751       -80.9600       -12.5533       -12.5533     28847.9004       394.4090
        -0.4693       -79.9800       -12.5533       -12.5533     28848.4102       394.4140
        -0.4650       -79.2400       -12.5533       -12.5533     28848.9199       394.4150
        -0.4612       -78.6000       -12.5533       -12.5533     28849.4297       394.4150
        -0.4580       -78.0400       -12.5533       -12.5533     28849.9395       394.4150
        -0.4548       -77.5000       -12.5533       -12.5533     28850.4492       394.4150
        -0.4521       -77.0400       -12.5533       -12.5533     28850.9609       394.4150
        -0.4495       -76.6000       -12.5533       -12.5533     28851.4707       394.4150
        -0.4470       -76.1800       -12.5533       -12.5533     28851.9805       394.4150
        -0.4448       -75.8000       -12.5533       -12.5533     28852.4902       394.4150
        -0.4428       -75.4600       -12.5533       -12.5533     28853.0000       394.4150
        -0.4411       -75.1600       -12.5533       -12.5533     28853.5098       394.4150
        -0.4391       -74.8200       -12.5533       -12.5533     28854.0195       394.4150
        -0.4374       -74.5400       -12.5533       -12.5533     28854.5293       394.4150
        -0.4358       -74.2600       -12.5533       -12.5533     28855.0391       394.4150
        -0.4344       -74.0200       -12.5533       -12.5533     28855.5508       394.4150
        -0.4328       -73.7600       -12.5533       -12.5533     28856.0605       394.4150
        -0.4315       -73.5400       -12.5533       -12.5533     28856.5703       394.4150
        -0.4301       -73.3000       -12.5533       -12.5533     28857.0801       394.4150
        -0.4288       -73.0800       -12.5533       -12.5533     28857.5898       394.4150
        -0.4277       -72.8800       -12.5533       -12.5533     28858.0996       394.4150
        -0.4265       -72.6800       -12.5533       -12.5533     28858.6094       394.4150
        -0.4253       -72.4800       -12.5533       -12.5533     28859.1191       394.4150
        -0.4243       -72.3000       -12.5533       -12.5533     28859.6309       394.4150
        -0.4232       -72.1200       -12.5533       -12.5533     28860.1406       394.4150
        -0.4223       -71.9600       -12.5533       -12.5533     28860.6504       394.4150
        -0.4212       -71.7800       -12.5533       -12.5533     28861.1602       394.4150
        -0.4204       -71.6400       -12.5533       -12.5533     28861.6699       394.4150
        -0.4195       -71.4800       -12.5533       -12.5533     28862.1797       394.4150
        -0.4186       -71.3400       -12.5533       -12.5533     28862.6895       394.4150
        -0.4179       -71.2200       -12.5533       -12.5533     28863.1992       394.4150
        -0.4170       -71.0600       -12.5533       -12.5533     28863.7109       394.4150
        -0.4162       -70.9200       -12.5533       -12.5533     28864.2207       394.4150
        -0.4155       -70.8000       -12.5533       -12.5533     28864.7305       394.4150
        -0.4146       -70.6600       -12.5533       -12.5533     28865.2402       394.4150
        -0.4141       -70.5600       -12.5533       -12.5533     28865.7500       394.4150
        -0.4132       -70.4200       -12.5533       -12.5533     28866.2598       394.4150
   #    -0.4125       -70.3000       -12.5200       -12.5200     28866.7695       394.4150
   #    -0.4119       -70.2000       -12.5200       -12.5200     28867.2793       394.4150
   #    -0.4112       -70.0800       -12.5200       -12.5200     28867.7891       394.4150
   #    -0.4107       -69.9800       -12.5200       -12.5200     28868.3008       394.4150
   #    -0.4100       -69.8600       -12.5200       -12.5200     28868.8105       394.4150
   #    -0.4095       -69.7800       -12.5200       -12.5200     28869.3203       394.4150
   #    -0.4088       -69.6600       -12.5200       -12.5200     28869.8301       394.4140
   #    -0.4083       -69.5800       -12.5200       -12.5200     28870.3398       394.4140
   #    -0.4077       -69.4800       -12.5200       -12.5200     28870.8496       394.4120
   #    -0.4071       -69.3800       -12.5200       -12.5200     28871.3594       394.4090
   #    -0.4064       -69.2600       -12.5200       -12.5200     28871.8691       394.3990
   #    -0.4061       -69.2000       -12.5200       -12.5200     28872.3809       394.3920
   #    -0.4061       -69.2000       -12.5200       -12.5200     28872.8906       394.3860
   #    -0.4073       -69.4000       -12.5200       -12.5200     28873.4004       394.3780
   #    -0.4073       -69.4000       -12.5200       -12.5200     28873.9102       394.3740
   #    -0.4074       -69.4200       -12.5200       -12.5200     28874.4199       394.3690
        -0.4094       -69.7600       -12.5533       -12.5533     28874.9297       394.3570
        -0.3778       -64.3800       -12.5533       -12.5533     28934.9609       394.3570
        -0.3650       -62.2000       -12.5533       -12.5533     28994.9902       394.3570
        -0.3569       -60.8200       -12.5533       -12.5533     29055.0195       394.3560
        -0.3509       -59.8000       -12.5533       -12.5533     29115.0508       394.3560
        -0.3462       -59.0000       -12.5533       -12.5533     29175.0801       394.3560
        -0.3425       -58.3600       -12.5533       -12.5533     29235.1094       394.3560
        -0.3392       -57.8000       -12.5533       -12.5533     29295.1406       394.3560
        -0.3364       -57.3200       -12.5533       -12.5533     29355.1699       394.3560
        -0.3338       -56.8800       -12.5533       -12.5533     29415.1992       394.3560
        -0.3314       -56.4800       -12.5533       -12.5533     29475.2305       394.3560
        -0.3294       -56.1400       -12.5533       -12.5533     29535.2598       394.3560
        -0.3276       -55.8200       -12.5533       -12.5533     29595.2891       394.3560
        -0.3259       -55.5400       -12.5533       -12.5533     29655.3203       394.3560
        -0.3242       -55.2400       -12.5533       -12.5533     29715.3496       394.3560
        -0.3228       -55.0000       -12.5533       -12.5533     29775.3809       394.3560
        -0.3212       -54.7400       -12.5533       -12.5533     29835.4102       394.3560
        -0.3199       -54.5200       -12.5533       -12.5533     29895.4395       394.3560
        -0.3188       -54.3200       -12.5533       -12.5533     29955.4707       394.3560
        -0.3175       -54.1000       -12.5533       -12.5533     30015.5000       394.3560
        -0.3163       -53.9000       -12.5533       -12.5533     30075.5293       394.3560
        -0.3152       -53.7200       -12.5533       -12.5533     30135.5605       394.3560
        -0.3142       -53.5400       -12.5533       -12.5533     30195.5898       394.3560
        -0.3130       -53.3400       -12.5533       -12.5533     30255.6191       394.3560
        -0.3122       -53.2000       -12.5533       -12.5533     30315.6504       394.3560
        -0.3112       -53.0400       -12.5533       -12.5533     30375.6797       394.3560
        -0.3104       -52.9000       -12.5533       -12.5533     30435.7109       394.3560
        -0.3095       -52.7400       -12.5533       -12.5533     30495.7402       394.3560
        -0.3087       -52.6000       -12.5533       -12.5533     30555.7695       394.3560
        -0.3077       -52.4400       -12.5533       -12.5533     30615.8008       394.3560
        -0.3071       -52.3400       -12.5533       -12.5533     30675.8301       394.3560
        -0.3063       -52.2000       -12.5533       -12.5533     30735.8594       394.3560
        -0.3056       -52.0800       -12.5533       -12.5533     30795.8906       394.3560
        -0.3049       -51.9600       -12.5533       -12.5533     30855.9199       394.3560
        -0.3044       -51.8800       -12.5533       -12.5533     30915.9492       394.3560
        -0.3036       -51.7400       -12.5533       -12.5533     30975.9805       394.3560
        -0.3030       -51.6400       -12.5533       -12.5533     31036.0098       394.3560
        -0.3024       -51.5400       -12.5533       -12.5533     31096.0391       394.3560
        -0.3019       -51.4400       -12.5533       -12.5533     31156.0703       394.3560
        -0.3013       -51.3400       -12.5533       -12.5533     31216.0996       394.3560
        -0.3063       -52.2000       -12.5533       -12.5533     31276.1309       394.3180
        -0.3054       -52.0400       -12.5533       -12.5533     31336.1602       394.3180
        -0.3047       -51.9200       -12.5533       -12.5533     31396.1895       394.3180
        -0.3041       -51.8200       -12.5533       -12.5533     31456.2207       394.3180
        -0.3035       -51.7200       -12.5533       -12.5533     31516.2500       394.3180
        -0.3029       -51.6200       -12.5533       -12.5533     31576.2793       394.3180
        -0.3023       -51.5200       -12.5533       -12.5533     31636.3105       394.3180
        -0.3019       -51.4400       -12.5533       -12.5533     31696.3398       394.3180
        -0.3014       -51.3600       -12.5533       -12.5533     31756.3691       394.3180
        -0.3008       -51.2600       -12.5533       -12.5533     31816.4004       394.3180
        -0.3005       -51.2000       -12.5533       -12.5533     31876.4297       394.3180
        -0.3000       -51.1200       -12.5533       -12.5533     31936.4609       394.3180
        -0.2990       -50.9600       -12.5533       -12.5533     31996.4902       394.3520
        -0.2987       -50.9000       -12.5533       -12.5533     32056.5195       394.3520
        -0.2983       -50.8400       -12.5533       -12.5533     32116.5508       394.3520
        -0.2980       -50.7800       -12.5533       -12.5533     32176.5801       394.3520
        -0.2978       -50.7400       -12.5533       -12.5533     32236.6094       394.3520
        -0.2974       -50.6800       -12.5533       -12.5533     32296.6406       394.3520
        -0.2970       -50.6200       -12.5533       -12.5533     32356.6699       394.3520
        -0.2968       -50.5800       -12.5533       -12.5533     32416.6992       394.3520
        -0.2967       -50.5600       -12.5533       -12.5533     32445.4102       394.3520
        -0.2967       -50.5600       -12.5533       -12.5533     32445.5293       394.3520
        -0.2967       -50.5600       -12.5533       -12.5533     32445.6504       394.3200
        -0.3063       -52.2000       -12.6533       -12.6533     32445.7695       394.2710
        -0.3310       -56.4000       -13.2333       -13.2333     32445.8906       394.1160
        -0.3759       -64.0600       -13.9467       -13.9467     32446.0098       393.8950
        -0.4205       -71.6600       -14.8533       -14.8533     32446.1309       393.6650
        -0.4563       -77.7600       -15.5000       -15.5000     32446.2500       393.4750
        -0.4900       -83.5000       -16.1133       -16.1133     32446.3691       393.2860
        -0.5222       -88.9800       -16.7600       -16.7600     32446.4902       393.1110
        -0.5488       -93.5200       -17.3467       -17.3467     32446.6094       392.9510
        -0.5761       -98.1800       -17.8933       -17.8933     32446.7305       392.7900
        -0.6048      -103.0600       -18.5067       -18.5067     32446.8496       392.6240
        -0.6342      -108.0800       -19.0600       -19.0600     32446.9707       392.4550
        -0.6635      -113.0600       -19.6400       -19.6400     32447.0898       392.2850
        -0.6933      -118.1400       -20.2600       -20.2600     32447.2109       392.1130
        -0.7235      -123.3000       -20.8733       -20.8733     32447.3301       391.9410
        -0.7542      -128.5200       -21.4867       -21.4867     32447.4492       391.7690
        -0.7843      -133.6600       -22.1000       -22.1000     32447.5703       391.5980
        -0.8143      -138.7600       -22.7200       -22.7200     32447.6895       391.4300
        -0.8433      -143.7000       -23.2333       -23.2333     32447.8105       391.2670
        -0.8724      -148.6600       -23.8200       -23.8200     32447.9297       391.1020
        -0.9030      -153.8800       -24.4000       -24.4000     32448.0508       390.9310
        -0.9345      -159.2400       -24.9800       -24.9800     32448.1699       390.7580
   #    -0.9192      -156.6400       -25.3400       -25.3400     32448.6797       390.6700
   #    -0.8911      -151.8600       -25.3067       -25.3067     32449.1895       390.7130
   #    -0.8604      -146.6200       -25.1133       -25.1133     32449.6992       390.7780
   #    -0.8437      -143.7800       -25.0133       -25.0133     32450.2109       390.8090
        -0.8355      -142.3800       -24.9800       -24.9800     32450.7207       390.8130
        -0.8293      -141.3200       -24.9800       -24.9800     32451.2305       390.8140
        -0.8237      -140.3600       -24.9800       -24.9800     32451.7402       390.8140
        -0.8185      -139.4800       -24.9800       -24.9800     32452.2500       390.8140
        -0.8140      -138.7200       -24.9800       -24.9800     32452.7598       390.8140
        -0.8099      -138.0200       -24.9800       -24.9800     32453.2695       390.8140
        -0.8062      -137.3800       -24.9800       -24.9800     32453.7793       390.8140
        -0.8028      -136.8000       -24.9800       -24.9800     32454.2891       390.8140
        -0.7997      -136.2800       -24.9800       -24.9800     32454.8008       390.8140
        -0.7968      -135.7800       -24.9800       -24.9800     32455.3105       390.8140
        -0.7940      -135.3000       -24.9800       -24.9800     32455.8203       390.8140
        -0.7914      -134.8600       -24.9800       -24.9800     32456.3301       390.8140
        -0.7892      -134.4800       -24.9800       -24.9800     32456.8398       390.8140
        -0.7868      -134.0800       -24.9800       -24.9800     32457.3496       390.8140
        -0.7848      -133.7400       -24.9800       -24.9800     32457.8594       390.8140
        -0.7827      -133.3800       -24.9800       -24.9800     32458.3691       390.8140
        -0.7808      -133.0600       -24.9800       -24.9800     32458.8809       390.8140
        -0.7789      -132.7400       -24.9800       -24.9800     32459.3906       390.8140
        -0.7772      -132.4400       -24.9800       -24.9800     32459.9004       390.8140
        -0.7757      -132.1800       -24.9800       -24.9800     32460.4102       390.8140
        -0.7740      -131.9000       -24.9800       -24.9800     32460.9199       390.8140
        -0.7726      -131.6600       -24.9800       -24.9800     32461.4297       390.8140
        -0.7711      -131.4000       -24.9800       -24.9800     32461.9395       390.8140
        -0.7697      -131.1600       -24.9800       -24.9800     32462.4492       390.8140
        -0.7683      -130.9200       -24.9800       -24.9800     32462.9609       390.8140
        -0.7670      -130.7000       -24.9800       -24.9800     32463.4707       390.8140
        -0.7657      -130.4800       -24.9800       -24.9800     32463.9805       390.8140
        -0.7644      -130.2600       -24.9800       -24.9800     32464.4902       390.8140
        -0.7633      -130.0800       -24.9800       -24.9800     32465.0000       390.8140
        -0.7622      -129.8800       -24.9800       -24.9800     32465.5098       390.8140
   #    -0.7611      -129.7000       -24.9467       -24.9467     32466.0195       390.8140
   #    -0.7600      -129.5200       -24.9467       -24.9467     32466.5293       390.8140
   #    -0.7590      -129.3400       -24.9467       -24.9467     32467.0391       390.8140
   #    -0.7579      -129.1600       -24.9467       -24.9467     32467.5508       390.8140
   #    -0.7571      -129.0200       -24.9467       -24.9467     32468.0605       390.8130
   #    -0.7562      -128.8600       -24.9467       -24.9467     32468.5703       390.8130
   #    -0.7551      -128.6800       -24.9467       -24.9467     32469.0801       390.8130
   #    -0.7542      -128.5200       -24.9467       -24.9467     32469.5898       390.8120
   #    -0.7534      -128.3800       -24.9467       -24.9467     32470.0996       390.8090
   #    -0.7524      -128.2200       -24.9467       -24.9467     32470.6094       390.8060
   #    -0.7516      -128.0800       -24.9467       -24.9467     32471.1191       390.7970
   #    -0.7508      -127.9400       -24.9467       -24.9467     32471.6309       390.7920
   #    -0.7503      -127.8600       -24.9467       -24.9467     32472.1406       390.7880
   #    -0.7510      -127.9800       -24.9467       -24.9467     32472.6504       390.7820
   #    -0.7524      -128.2200       -24.9467       -24.9467     32473.1602       390.7740
   #    -0.7534      -128.3800       -24.9467       -24.9467     32473.6699       390.7660
   #    -0.7538      -128.4600       -24.9467       -24.9467     32474.1797       390.7600
        -0.7543      -128.5400       -24.9800       -24.9800     32474.6895       390.7550
        -0.7532      -128.3600       -24.9800       -24.9800     32475.1992       390.7550
        -0.7523      -128.2000       -24.9800       -24.9800     32475.7109       390.7550
        -0.7514      -128.0400       -24.9800       -24.9800     32476.2207       390.7550
        -0.7507      -127.9200       -24.9800       -24.9800     32476.7305       390.7550
        -0.7500      -127.8000       -24.9800       -24.9800     32477.2402       390.7550
        -0.7491      -127.6600       -24.9800       -24.9800     32477.7500       390.7550
        -0.7089      -120.8000       -24.9800       -24.9800     32537.7793       390.7540
        -0.6921      -117.9400       -24.9800       -24.9800     32597.8105       390.7540
        -0.6866      -117.0000       -24.9800       -24.9800     32657.8398       390.7240
        -0.6785      -115.6200       -24.9800       -24.9800     32717.8691       390.7240
        -0.6723      -114.5600       -24.9800       -24.9800     32777.8984       390.7240
        -0.6671      -113.6800       -24.9800       -24.9800     32837.9297       390.7240
        -0.6667      -113.6200       -24.9800       -24.9800     32897.9609       390.7020
        -0.6626      -112.9200       -24.9800       -24.9800     32957.9883       390.7020
        -0.6592      -112.3400       -24.9800       -24.9800     33018.0195       390.7020
        -0.6562      -111.8200       -24.9800       -24.9800     33078.0508       390.7020
        -0.6585      -112.2200       -24.9800       -24.9800     33138.0781       390.6710
        -0.6555      -111.7000       -24.9800       -24.9800     33198.1094       390.6710
        -0.6531      -111.3000       -24.9800       -24.9800     33258.1406       390.6710
        -0.6509      -110.9200       -24.9800       -24.9800     33318.1719       390.6710
        -0.6488      -110.5600       -24.9800       -24.9800     33378.1992       390.6710
        -0.6469      -110.2400       -24.9800       -24.9800     33438.2305       390.6710
        -0.6451      -109.9400       -24.9800       -24.9800     33498.2617       390.6710
        -0.6436      -109.6800       -24.9800       -24.9800     33558.2891       390.6710
        -0.6420      -109.4000       -24.9800       -24.9800     33618.3203       390.6710
        -0.6406      -109.1600       -24.9800       -24.9800     33678.3516       390.6710
        -0.6392      -108.9200       -24.9800       -24.9800     33738.3789       390.6710
        -0.6378      -108.6800       -24.9800       -24.9800     33798.4102       390.6710
        -0.6367      -108.5000       -24.9800       -24.9800     33858.4414       390.6710
        -0.6355      -108.3000       -24.9800       -24.9800     33918.4688       390.6710
        -0.6344      -108.1000       -24.9800       -24.9800     33978.5000       390.6710
        -0.6332      -107.9000       -24.9800       -24.9800     34038.5312       390.6710
        -0.6321      -107.7200       -24.9800       -24.9800     34098.5586       390.6710
        -0.6312      -107.5600       -24.9800       -24.9800     34158.5898       390.6710
        -0.6302      -107.4000       -24.9800       -24.9800     34218.6211       390.6710
        -0.6293      -107.2400       -24.9800       -24.9800     34278.6484       390.6710
        -0.6284      -107.0800       -24.9800       -24.9800     34338.6797       390.6710
        -0.6274      -106.9200       -24.9800       -24.9800     34398.7109       390.6710
        -0.6266      -106.7800       -24.9800       -24.9800     34458.7383       390.6710
        -0.6258      -106.6400       -24.9800       -24.9800     34518.7695       390.6710
        -0.6250      -106.5000       -24.9800       -24.9800     34578.8008       390.6710
        -0.6241      -106.3600       -24.9800       -24.9800     34638.8281       390.6710
        -0.6236      -106.2600       -24.9800       -24.9800     34698.8594       390.6710
        -0.6227      -106.1200       -24.9800       -24.9800     34758.8906       390.6710
        -0.6220      -106.0000       -24.9800       -24.9800     34818.9219       390.6710
        -0.6257      -106.6200       -24.9800       -24.9800     34878.9492       390.6480
        -0.6245      -106.4200       -24.9800       -24.9800     34938.9805       390.6480
        -0.6236      -106.2600       -24.9800       -24.9800     34999.0117       390.6480
        -0.6229      -106.1400       -24.9800       -24.9800     35059.0391       390.6480
        -0.6219      -105.9800       -24.9800       -24.9800     35119.0703       390.6480
        -0.6213      -105.8800       -24.9800       -24.9800     35179.1016       390.6480
        -0.6205      -105.7400       -24.9800       -24.9800     35239.1289       390.6480
        -0.6199      -105.6400       -24.9800       -24.9800     35299.1602       390.6480
        -0.6192      -105.5200       -24.9800       -24.9800     35359.1914       390.6480
        -0.6186      -105.4200       -24.9800       -24.9800     35419.2188       390.6480
        -0.6178      -105.2800       -24.9800       -24.9800     35479.2500       390.6480
        -0.6172      -105.1800       -24.9800       -24.9800     35539.2812       390.6480
        -0.6167      -105.1000       -24.9800       -24.9800     35599.3086       390.6480
        -0.6160      -104.9800       -24.9800       -24.9800     35659.3398       390.6480
        -0.6155      -104.8800       -24.9800       -24.9800     35719.3711       390.6480
        -0.6148      -104.7600       -24.9800       -24.9800     35779.3984       390.6480
        -0.6178      -105.2800       -24.9800       -24.9800     35839.4297       390.6320
        -0.6167      -105.1000       -24.9800       -24.9800     35899.4609       390.6300
        -0.6159      -104.9600       -24.9800       -24.9800     35959.4883       390.6300
        -0.6155      -104.8800       -24.9800       -24.9800     36019.5195       390.6300
        -0.6152      -104.8400       -24.9800       -24.9800     36048.1992       390.6300
        -0.6151      -104.8200       -24.9800       -24.9800     36048.3203       390.6300
        -0.6151      -104.8200       -24.9800       -24.9800     36048.4414       390.6300
        -0.6138      -104.6000       -24.9800       -24.9800     36048.5586       390.6870
        -0.5690       -96.9600       -24.4333       -24.4333     36048.6797       390.8580
        -0.5226       -89.0600       -23.7867       -23.7867     36048.8008       391.0420
        -0.4731       -80.6200       -22.9733       -22.9733     36048.9219       391.2630
        -0.4222       -71.9400       -22.1667       -22.1667     36049.0391       391.4960
        -0.3760       -64.0800       -21.3600       -21.3600     36049.1602       391.7160
        -0.3456       -58.9000       -20.7400       -20.7400     36049.2812       391.8880
        -0.3168       -53.9800       -20.0933       -20.0933     36049.3984       392.0600
        -0.2908       -49.5600       -19.5467       -19.5467     36049.5195       392.2160
        -0.2671       -45.5200       -18.9933       -18.9933     36049.6406       392.3700
        -0.2439       -41.5600       -18.4467       -18.4467     36049.7617       392.5270
        -0.2186       -37.2600       -17.8333       -17.8333     36049.8789       392.6940
        -0.1942       -33.1000       -17.2800       -17.2800     36050.0000       392.8610
        -0.1708       -29.1000       -16.6667       -16.6667     36050.1211       393.0310
        -0.1474       -25.1200       -16.0800       -16.0800     36050.2383       393.2030
        -0.1251       -21.3200       -15.5000       -15.5000     36050.3594       393.3730
        -0.1042       -17.7600       -14.9200       -14.9200     36050.4805       393.5420
        -0.0845       -14.4000       -14.3333       -14.3333     36050.6016       393.7100
        -0.0646       -11.0000       -13.7533       -13.7533     36050.7188       393.8840
        -0.0451        -7.6800       -13.1400       -13.1400     36050.8398       394.0590
        -0.0264        -4.5000       -12.5867       -12.5867     36050.9609       394.2350
  #  
        -0.0250        -6.1600       -12.4600       -12.1667     36051.4688       394.3490
  #
  #     -0.0516        -8.8000       -12.1333       -12.1333     36051.9805       394.3270
  #     -0.0726       -12.3800       -12.2667       -12.2667     36052.4883       394.2610
  #     -0.0877       -14.9400       -12.3933       -12.3933     36053.0000       394.2090
  #     -0.0965       -16.4400       -12.4267       -12.4267     36053.5117       394.1880
        -0.1027       -17.5000       -12.4600       -12.4600     36054.0195       394.1770
        -0.1077       -18.3600       -12.4600       -12.4600     36054.5312       394.1700
        -0.1115       -19.0000       -12.4600       -12.4600     36055.0391       394.1690
        -0.1149       -19.5800       -12.4600       -12.4600     36055.5508       394.1680
        -0.1180       -20.1000       -12.4600       -12.4600     36056.0586       394.1680
        -0.1208       -20.5800       -12.4600       -12.4600     36056.5703       394.1680
        -0.1233       -21.0200       -12.4600       -12.4600     36057.0781       394.1680
        -0.1258       -21.4400       -12.4600       -12.4600     36057.5898       394.1680
        -0.1280       -21.8200       -12.4600       -12.4600     36058.1016       394.1680
        -0.1302       -22.1800       -12.4600       -12.4600     36058.6094       394.1680
        -0.1320       -22.5000       -12.4600       -12.4600     36059.1211       394.1680
        -0.1340       -22.8400       -12.4600       -12.4600     36059.6289       394.1680
        -0.1357       -23.1200       -12.4600       -12.4600     36060.1406       394.1680
        -0.1373       -23.4000       -12.4600       -12.4600     36060.6484       394.1680
        -0.1390       -23.6800       -12.4600       -12.4600     36061.1602       394.1680
        -0.1405       -23.9400       -12.4600       -12.4600     36061.6719       394.1680
        -0.1418       -24.1600       -12.4600       -12.4600     36062.1797       394.1680
        -0.1432       -24.4000       -12.4600       -12.4600     36062.6914       394.1680
        -0.1446       -24.6400       -12.4600       -12.4600     36063.1992       394.1680
        -0.1458       -24.8400       -12.4600       -12.4600     36063.7109       394.1680
        -0.1471       -25.0600       -12.4600       -12.4600     36064.2188       394.1680
        -0.1481       -25.2400       -12.4600       -12.4600     36064.7305       394.1680
        -0.1493       -25.4400       -12.4600       -12.4600     36065.2383       394.1680
        -0.1503       -25.6200       -12.4600       -12.4600     36065.7500       394.1680
        -0.1513       -25.7800       -12.4600       -12.4600     36066.2617       394.1680
        -0.1523       -25.9600       -12.4600       -12.4600     36066.7695       394.1680
        -0.1533       -26.1200       -12.4600       -12.4600     36067.2812       394.1680
        -0.1543       -26.3000       -12.4600       -12.4600     36067.7891       394.1680
        -0.1553       -26.4600       -12.4600       -12.4600     36068.3008       394.1680
        -0.1561       -26.6000       -12.4600       -12.4600     36068.8086       394.1680
        -0.1568       -26.7200       -12.4600       -12.4600     36069.3203       394.1680
        -0.1577       -26.8800       -12.4600       -12.4600     36069.8281       394.1680
        -0.1584       -27.0000       -12.4600       -12.4600     36070.3398       394.1680
   #    -0.1593       -27.1400       -12.4267       -12.4267     36070.8516       394.1660
   #    -0.1613       -27.4800       -12.4267       -12.4267     36071.3594       394.1600
   #    -0.1633       -27.8200       -12.4267       -12.4267     36071.8711       394.1520
   #    -0.1652       -28.1600       -12.4267       -12.4267     36072.3789       394.1450
   #    -0.1670       -28.4600       -12.4267       -12.4267     36072.8906       394.1370
        -0.1692       -28.8400       -12.4600       -12.4600     36073.3984       394.1270
        -0.1698       -28.9400       -12.4600       -12.4600     36073.9102       394.1250
        -0.1703       -29.0200       -12.4600       -12.4600     36074.4219       394.1250
        -0.1709       -29.1200       -12.4600       -12.4600     36074.9297       394.1250
        -0.1715       -29.2200       -12.4600       -12.4600     36075.4414       394.1250
        -0.1719       -29.3000       -12.4600       -12.4600     36075.9492       394.1250
        -0.1725       -29.4000       -12.4600       -12.4600     36076.4609       394.1250
        -0.1730       -29.4800       -12.4600       -12.4600     36076.9688       394.1250
        -0.1735       -29.5600       -12.4600       -12.4600     36077.4805       394.1250
        -0.1739       -29.6400       -12.4600       -12.4600     36077.9883       394.1250
        -0.1745       -29.7400       -12.4600       -12.4600     36078.5000       394.1240
        -0.1750       -29.8200       -12.4600       -12.4600     36079.0117       394.1240
        -0.1755       -29.9000       -12.4600       -12.4600     36079.5195       394.1240
        -0.1760       -30.0000       -12.4600       -12.4600     36080.0312       394.1240
        -0.1765       -30.0800       -12.4600       -12.4600     36080.5391       394.1240
        -0.2063       -35.1600       -12.4600       -12.4600     36140.5703       394.1240
        -0.2189       -37.3000       -12.4600       -12.4600     36200.6016       394.1240
        -0.2266       -38.6200       -12.4600       -12.4600     36260.6289       394.1240
        -0.2321       -39.5600       -12.4600       -12.4600     36320.6602       394.1240
        -0.2363       -40.2600       -12.4600       -12.4600     36380.6914       394.1240
        -0.2395       -40.8200       -12.4600       -12.4600     36440.7188       394.1240
        -0.2462       -41.9600       -12.4600       -12.4600     36500.7500       394.0960
        -0.2478       -42.2200       -12.4600       -12.4600     36560.7812       394.0960
        -0.2495       -42.5200       -12.4600       -12.4600     36620.8086       394.0960
        -0.2512       -42.8000       -12.4600       -12.4600     36680.8398       394.0960
        -0.2527       -43.0600       -12.4600       -12.4600     36740.8711       394.0960
        -0.2539       -43.2600       -12.4600       -12.4600     36800.8984       394.0960
        -0.2550       -43.4600       -12.4600       -12.4600     36860.9297       394.0960
        -0.2550       -43.4600       -12.4600       -12.4600     36920.9609       394.1300
        -0.2560       -43.6200       -12.4600       -12.4600     36980.9883       394.1300
        -0.2568       -43.7600       -12.4600       -12.4600     37041.0195       394.1300
        -0.2575       -43.8800       -12.4600       -12.4600     37101.0508       394.1300
        -0.2583       -44.0200       -12.4600       -12.4600     37161.0781       394.1300
        -0.2589       -44.1200       -12.4600       -12.4600     37221.1094       394.1300
        -0.2595       -44.2200       -12.4600       -12.4600     37281.1406       394.1300
        -0.2601       -44.3200       -12.4600       -12.4600     37341.1719       394.1300
        -0.2605       -44.4000       -12.4600       -12.4600     37401.1992       394.1300
        -0.2610       -44.4800       -12.4600       -12.4600     37461.2305       394.1300
        -0.2615       -44.5600       -12.4600       -12.4600     37521.2617       394.1300
        -0.2617       -44.6000       -12.4600       -12.4600     37581.2891       394.1300
        -0.2622       -44.6800       -12.4600       -12.4600     37641.3203       394.1300
        -0.2625       -44.7400       -12.4600       -12.4600     37701.3516       394.1300
        -0.2628       -44.7800       -12.4600       -12.4600     37761.3789       394.1300
        -0.2631       -44.8400       -12.4600       -12.4600     37821.4102       394.1300
        -0.2632       -44.8600       -12.4600       -12.4600     37881.4414       394.1300
        -0.2636       -44.9200       -12.4600       -12.4600     37941.4688       394.1300
        -0.2637       -44.9400       -12.4600       -12.4600     38001.5000       394.1300
        -0.2641       -45.0000       -12.4600       -12.4600     38061.5312       394.1300
        -0.2641       -45.0000       -12.4600       -12.4600     38121.5586       394.1300
        -0.2643       -45.0400       -12.4600       -12.4600     38181.5898       394.1300
        -0.2644       -45.0600       -12.4600       -12.4600     38241.6211       394.1300
        -0.2647       -45.1000       -12.4600       -12.4600     38301.6484       394.1300
        -0.2649       -45.1400       -12.4600       -12.4600     38361.6797       394.1300
        -0.2649       -45.1400       -12.4600       -12.4600     38421.7109       394.1300
        -0.2650       -45.1600       -12.4600       -12.4600     38481.7383       394.1300
        -0.2651       -45.1800       -12.4600       -12.4600     38541.7695       394.1300
        -0.2652       -45.2000       -12.4600       -12.4600     38601.8008       394.1300
        -0.2652       -45.2000       -12.4600       -12.4600     38661.8281       394.1300
        -0.2654       -45.2200       -12.4600       -12.4600     38721.8594       394.1300
        -0.2654       -45.2200       -12.4600       -12.4600     38781.8906       394.1300
        -0.2655       -45.2400       -12.4600       -12.4600     38841.9219       394.1300
        -0.2656       -45.2600       -12.4600       -12.4600     38901.9492       394.1300
        -0.2656       -45.2600       -12.4600       -12.4600     38961.9805       394.1300
        -0.2657       -45.2800       -12.4600       -12.4600     39022.0117       394.1300
        -0.2658       -45.3000       -12.4600       -12.4600     39082.0391       394.1300
        -0.2658       -45.3000       -12.4600       -12.4600     39142.0703       394.1300
        -0.2658       -45.3000       -12.4600       -12.4600     39202.1016       394.1300
        -0.2657       -45.2800       -12.4600       -12.4600     39262.1289       394.1300
        -0.2659       -45.3200       -12.4600       -12.4600     39322.1602       394.1300
        -0.2659       -45.3200       -12.4600       -12.4600     39382.1914       394.1300
        -0.2659       -45.3200       -12.4600       -12.4600     39442.2188       394.1300
        -0.2661       -45.3400       -12.4600       -12.4600     39502.2500       394.1300
        -0.2659       -45.3200       -12.4600       -12.4600     39562.2812       394.1300
        -0.2661       -45.3400       -12.4600       -12.4600     39622.3086       394.1300
        -0.2661       -45.3400       -12.4600       -12.4600     39651.0195       394.1300
        -0.2661       -45.3400       -12.4600       -12.4600     39651.1406       394.1300
        -0.2631       -44.8400       -12.3600       -12.3600     39651.2617       394.1700
        -0.2382       -40.6000       -11.9400       -11.9400     39651.3789       394.2840
        -0.2156       -36.7400       -11.4867       -11.4867     39651.5000       394.4060
        -0.1866       -31.8000       -10.8733       -10.8733     39651.6211       394.5810
        -0.1555       -26.5000       -10.2600       -10.2600     39651.7383       394.7670
        -0.1266       -21.5800        -9.5800        -9.5800     39651.8594       394.9520
        -0.1009       -17.2000        -8.9667        -8.9667     39651.9805       395.1360
        -0.0765       -13.0400        -8.3800        -8.3800     39652.1016       395.3180
        -0.0540        -9.2000        -7.7667        -7.7667     39652.2188       395.4970
        -0.0333        -5.6800        -7.1533        -7.1533     39652.3398       395.6720
        -0.0138        -2.3600        -6.5667        -6.5667     39652.4609       395.8480
         0.0045         0.7600        -5.9867        -5.9867     39652.5781       396.0190
         0.0224         3.8200        -5.4333        -5.4333     39652.6992       396.1920
         0.0390         6.6400        -4.8867        -4.8867     39652.8203       396.3700
         0.0546         9.3000        -4.3667        -4.3667     39652.9414       396.5490
         0.0699        11.9200        -3.8533        -3.8533     39653.0586       396.7360
         0.0880        15.0000        -3.2333        -3.2333     39653.1797       396.9380
         0.1056        18.0000        -2.6867        -2.6867     39653.3008       397.1410
         0.1235        21.0400        -2.1067        -2.1067     39653.4219       397.3470
         0.1410        24.0200        -1.4867        -1.4867     39653.5391       397.5550
    # 
         0.1574        26.8200        -0.9067        -0.9067     39653.6602       397.7630
    #
    #    0.1741        29.6600        -0.2933        -0.2933     39653.7812       397.9700
    # 
         0.1780        29.4400         0.0000         0.3267     39654.2891       398.1510
    #
    #    0.1580        26.9200         0.3267         0.3267     39654.8008       398.1090
    #    0.1422        24.2400         0.1933         0.1933     39655.3086       398.0400
    #    0.1316        22.4200         0.0667         0.0667     39655.8203       397.9910
    #    0.1252        21.3400         0.0333         0.0333     39656.3281       397.9710
    #    0.1204        20.5200         0.0333         0.0333     39656.8398       397.9590
         0.1164        19.8400         0.0000         0.0000     39657.3516       397.9500
         0.1136        19.3600         0.0000         0.0000     39657.8594       397.9500
         0.1111        18.9400         0.0000         0.0000     39658.3711       397.9500
         0.1089        18.5600         0.0000         0.0000     39658.8789       397.9500
         0.1069        18.2200         0.0000         0.0000     39659.3906       397.9500
         0.1048        17.8600         0.0000         0.0000     39659.8984       397.9500
         0.1032        17.5800         0.0000         0.0000     39660.4102       397.9500
         0.1014        17.2800         0.0000         0.0000     39660.9219       397.9500
         0.1000        17.0400         0.0000         0.0000     39661.4297       397.9500
         0.0985        16.7800         0.0000         0.0000     39661.9414       397.9500
    #    0.0972        16.5600         0.0333         0.0333     39662.4492       397.9500
    #    0.0957        16.3000         0.0333         0.0333     39662.9609       397.9480
    #    0.0931        15.8600         0.0333         0.0333     39663.4688       397.9370
    #    0.0911        15.5200         0.0333         0.0333     39663.9805       397.9280
    #    0.0891        15.1800         0.0333         0.0333     39664.4883       397.9190
         0.0876        14.9200         0.0000         0.0000     39665.0000       397.9140
         0.0867        14.7800         0.0000         0.0000     39665.5117       397.9140
         0.0859        14.6400         0.0000         0.0000     39666.0195       397.9140
         0.0851        14.5000         0.0000         0.0000     39666.5312       397.9140
         0.0841        14.3400         0.0000         0.0000     39667.0391       397.9140
         0.0834        14.2200         0.0000         0.0000     39667.5508       397.9140
         0.0826        14.0800         0.0000         0.0000     39668.0586       397.9140
         0.0819        13.9600         0.0000         0.0000     39668.5703       397.9140
         0.0811        13.8200         0.0000         0.0000     39669.0781       397.9140
         0.0805        13.7200         0.0000         0.0000     39669.5898       397.9140
         0.0798        13.6000         0.0000         0.0000     39670.1016       397.9140
         0.0792        13.5000         0.0000         0.0000     39670.6094       397.9140
         0.0785        13.3800         0.0000         0.0000     39671.1211       397.9140
         0.0779        13.2800         0.0000         0.0000     39671.6289       397.9140
         0.0773        13.1800         0.0000         0.0000     39672.1406       397.9140
         0.0766        13.0600         0.0000         0.0000     39672.6484       397.9140
         0.0762        12.9800         0.0000         0.0000     39673.1602       397.9140
         0.0756        12.8800         0.0000         0.0000     39673.6719       397.9140
     #   0.0751        12.8000         0.0333         0.0333     39674.1797       397.9130
     #   0.0737        12.5600         0.0333         0.0333     39674.6914       397.9070
     #   0.0721        12.2800         0.0333         0.0333     39675.1992       397.8970
     #   0.0708        12.0600         0.0333         0.0333     39675.7109       397.8890
         0.0696        11.8600         0.0000         0.0000     39676.2188       397.8820
         0.0689        11.7400         0.0000         0.0000     39676.7305       397.8780
         0.0684        11.6600         0.0000         0.0000     39677.2383       397.8760
         0.0680        11.5800         0.0000         0.0000     39677.7500       397.8760
         0.0676        11.5200         0.0000         0.0000     39678.2617       397.8760
         0.0672        11.4600         0.0000         0.0000     39678.7695       397.8760
         0.0668        11.3800         0.0000         0.0000     39679.2812       397.8760
         0.0665        11.3400         0.0000         0.0000     39679.7891       397.8760
         0.0661        11.2600         0.0000         0.0000     39680.3008       397.8760
         0.0657        11.2000         0.0000         0.0000     39680.8086       397.8760
         0.0654        11.1400         0.0000         0.0000     39681.3203       397.8760
         0.0650        11.0800         0.0000         0.0000     39681.8281       397.8760
         0.0647        11.0200         0.0000         0.0000     39682.3398       397.8760
         0.0643        10.9600         0.0000         0.0000     39682.8516       397.8760
         0.0640        10.9000         0.0000         0.0000     39683.3594       397.8760
         0.0407         6.9400         0.0000         0.0000     39743.3906       397.8800
     #   0.0316         5.3800         0.0333         0.0333     39803.4219       397.8550
         0.0225         3.8400         0.0000         0.0000     39863.4492       397.8080
         0.0189         3.2200         0.0000         0.0000     39923.4805       397.8380
         0.0127         2.1600         0.0000         0.0000     39983.5117       397.7730
         0.0104         1.7800         0.0000         0.0000     40043.5391       397.7730
         0.0085         1.4400         0.0000         0.0000     40103.5703       397.7730
         0.0067         1.1400         0.0000         0.0000     40163.6016       397.7730
         0.0052         0.8800         0.0000         0.0000     40223.6289       397.7730
         0.0038         0.6400         0.0000         0.0000     40283.6602       397.7730
         0.0025         0.4200         0.0000         0.0000     40343.6914       397.7730
         0.0013         0.2200         0.0000         0.0000     40403.7188       397.7730
         0.0005         0.0800         0.0000         0.0000     40463.7500       397.7730
        -0.0041        -0.7000         0.0000         0.0000     40523.7812       397.7320
        -0.0047        -0.8000         0.0000         0.0000     40583.8086       397.7320
        -0.0054        -0.9200         0.0000         0.0000     40643.8398       397.7320
        -0.0060        -1.0200         0.0000         0.0000     40703.8711       397.7320
        -0.0067        -1.1400         0.0000         0.0000     40763.8984       397.7320
        -0.0072        -1.2200         0.0000         0.0000     40823.9297       397.7320
        -0.0077        -1.3200         0.0000         0.0000     40883.9609       397.7320
        -0.0083        -1.4200         0.0000         0.0000     40943.9883       397.7320
        -0.0089        -1.5200         0.0000         0.0000     41004.0195       397.7320
        -0.0094        -1.6000         0.0000         0.0000     41064.0508       397.7320
        -0.0099        -1.6800         0.0000         0.0000     41124.0781       397.7320
        -0.0103        -1.7600         0.0000         0.0000     41184.1094       397.7320
        -0.0108        -1.8400         0.0000         0.0000     41244.1406       397.7320
        -0.0111        -1.9000         0.0000         0.0000     41304.1719       397.7320
        -0.0141        -2.4000         0.0000         0.0000     41364.1992       397.7020
        -0.0119        -2.0200         0.0000         0.0000     41424.2305       397.7570
        -0.0123        -2.1000         0.0000         0.0000     41484.2617       397.7570
        -0.0126        -2.1400         0.0000         0.0000     41544.2891       397.7570
        -0.0130        -2.2200         0.0000         0.0000     41604.3203       397.7570
        -0.0134        -2.2800         0.0000         0.0000     41664.3516       397.7570
        -0.0136        -2.3200         0.0000         0.0000     41724.3789       397.7570
        -0.0140        -2.3800         0.0000         0.0000     41784.4102       397.7570
        -0.0142        -2.4200         0.0000         0.0000     41844.4414       397.7570
        -0.0144        -2.4600         0.0000         0.0000     41904.4688       397.7570
        -0.0147        -2.5000         0.0000         0.0000     41964.5000       397.7570
        -0.0150        -2.5600         0.0000         0.0000     42024.5312       397.7570
        -0.0151        -2.5800         0.0000         0.0000     42084.5586       397.7570
        -0.0154        -2.6200         0.0000         0.0000     42144.5898       397.7570
        -0.0156        -2.6600         0.0000         0.0000     42204.6211       397.7570
        -0.0190        -3.2400         0.0000         0.0000     42264.6484       397.6980
        -0.0187        -3.1800         0.0000         0.0000     42324.6797       397.6960
        -0.0188        -3.2000         0.0000         0.0000     42384.7109       397.6960
        -0.0188        -3.2000         0.0000         0.0000     42444.7383       397.6960
        -0.0190        -3.2400         0.0000         0.0000     42504.7695       397.6960
        -0.0191        -3.2600         0.0000         0.0000     42564.8008       397.6960
        -0.0192        -3.2800         0.0000         0.0000     42624.8281       397.6960
        -0.0194        -3.3000         0.0000         0.0000     42684.8594       397.6960
        -0.0196        -3.3400         0.0000         0.0000     42744.8906       397.6960
        -0.0196        -3.3400         0.0000         0.0000     42804.9219       397.6960
        -0.0197        -3.3600         0.0000         0.0000     42864.9492       397.6960
        -0.0200        -3.4000         0.0000         0.0000     42924.9805       397.6960
        -0.0201        -3.4200         0.0000         0.0000     42985.0117       397.6960
        -0.0201        -3.4200         0.0000         0.0000     43045.0391       397.6960
        -0.0202        -3.4400         0.0000         0.0000     43105.0703       397.6960
        -0.0203        -3.4600         0.0000         0.0000     43165.1016       397.6960
        -0.0204        -3.4800         0.0000         0.0000     43225.1289       397.6960
